%OpenBCI Raw EEG Data
%Number of channels = 4
%Sample Rate = 200.0 Hz
%First Column = SampleIndex
%Last Column = Timestamp 
%Other Columns = EEG data in microvolts followed by Accel Data (in G) interleaved with Aux Data
103, 962.58, 726.43, 780.86, 227.64, 0.000, 0.000, 0.000, 21:11:01.669, 1582472461669
104, 968.59, 788.88, 807.48, 386.80, 0.000, 0.000, 0.000, 21:11:01.669, 1582472461669
105, 1016.08, 941.22, 856.70, 787.13, 0.000, 0.000, 0.000, 21:11:01.669, 1582472461669
106, 951.37, 764.89, 760.96, 337.79, 0.000, 0.000, 0.000, 21:11:01.669, 1582472461669
107, 1051.17, 788.50, 866.64, 273.85, 0.000, 0.000, 0.000, 21:11:01.683, 1582472461683
108, 985.30, 804.79, 808.15, 394.18, 0.000, 0.000, 0.000, 21:11:01.683, 1582472461683
109, 992.56, 930.23, 823.49, 772.79, 0.000, 0.000, 0.000, 21:11:01.699, 1582472461699
110, 980.35, 782.15, 819.03, 358.90, 0.000, 0.000, 0.000, 21:11:01.699, 1582472461699
111, 987.64, 751.76, 792.15, 250.89, 0.000, 0.000, 0.000, 21:11:01.699, 1582472461699
112, 928.48, 760.77, 787.67, 368.41, 0.000, 0.000, 0.000, 21:11:01.699, 1582472461699
113, 992.32, 923.75, 846.70, 781.23, 0.000, 0.000, 0.000, 21:11:01.713, 1582472461713
114, 956.01, 751.33, 786.14, 341.15, 0.000, 0.000, 0.000, 21:11:01.713, 1582472461713
115, 935.29, 705.23, 769.79, 212.82, 0.000, 0.000, 0.000, 21:11:01.729, 1582472461729
116, 966.37, 785.03, 796.66, 369.68, 0.000, 0.000, 0.000, 21:11:01.729, 1582472461729
117, 1005.51, 930.23, 848.35, 782.17, 0.000, 0.000, 0.000, 21:11:01.729, 1582472461729
118, 963.65, 757.44, 794.02, 342.86, 0.000, 0.000, 0.000, 21:11:01.729, 1582472461729
119, 959.47, 721.55, 780.77, 224.80, 0.000, 0.000, 0.000, 21:11:01.743, 1582472461743
120, 988.29, 794.74, 820.20, 388.43, 0.000, 0.000, 0.000, 21:11:01.743, 1582472461743
121, 1016.66, 944.62, 849.47, 791.26, 0.000, 0.000, 0.000, 21:11:01.759, 1582472461759
122, 975.68, 766.88, 804.93, 356.16, 0.000, 0.000, 0.000, 21:11:01.759, 1582472461759
123, 937.34, 709.98, 764.89, 219.23, 0.000, 0.000, 0.000, 21:11:01.759, 1582472461759
124, 994.83, 801.37, 813.86, 384.30, 0.000, 0.000, 0.000, 21:11:01.759, 1582472461759
125, 1036.07, 946.86, 892.80, 805.34, 0.000, 0.000, 0.000, 21:11:01.773, 1582472461773
126, 955.31, 749.49, 788.01, 340.93, 0.000, 0.000, 0.000, 21:11:01.773, 1582472461773
127, 934.46, 705.83, 752.62, 209.98, 0.000, 0.000, 0.000, 21:11:01.789, 1582472461789
128, 969.37, 783.34, 802.28, 370.68, 0.000, 0.000, 0.000, 21:11:01.789, 1582472461789
129, 1037.00, 946.82, 888.91, 803.74, 0.000, 0.000, 0.000, 21:11:01.789, 1582472461789
130, 956.13, 755.82, 777.52, 342.82, 0.000, 0.000, 0.000, 21:11:01.789, 1582472461789
131, 920.41, 699.69, 743.97, 215.79, 0.000, 0.000, 0.000, 21:11:01.803, 1582472461803
132, 962.33, 772.75, 795.91, 367.12, 0.000, 0.000, 0.000, 21:11:01.803, 1582472461803
133, 986.46, 914.42, 842.89, 775.88, 0.000, 0.000, 0.000, 21:11:01.819, 1582472461819
134, 991.83, 770.71, 838.14, 362.65, 0.000, 0.000, 0.000, 21:11:01.819, 1582472461819
135, 965.78, 725.64, 785.56, 239.26, 0.000, 0.000, 0.000, 21:11:01.819, 1582472461819
136, 942.85, 769.35, 768.16, 358.60, 0.000, 0.000, 0.000, 21:11:01.819, 1582472461819
137, 999.43, 923.18, 868.64, 781.65, 0.000, 0.000, 0.000, 21:11:01.850, 1582472461850
138, 986.00, 773.94, 817.12, 355.97, 0.000, 0.000, 0.000, 21:11:01.850, 1582472461850
139, 974.57, 741.47, 793.58, 241.04, 0.000, 0.000, 0.000, 21:11:01.850, 1582472461850
140, 961.16, 775.50, 778.18, 362.37, 0.000, 0.000, 0.000, 21:11:01.850, 1582472461850
141, 1028.82, 939.63, 878.50, 792.37, 0.000, 0.000, 0.000, 21:11:01.851, 1582472461851
142, 979.53, 766.35, 818.34, 359.38, 0.000, 0.000, 0.000, 21:11:01.851, 1582472461851
143, 951.81, 719.95, 765.08, 234.24, 0.000, 0.000, 0.000, 21:11:01.863, 1582472461863
144, 955.11, 770.79, 775.58, 354.54, 0.000, 0.000, 0.000, 21:11:01.863, 1582472461863
145, 979.27, 910.61, 828.92, 767.37, 0.000, 0.000, 0.000, 21:11:01.879, 1582472461879
146, 941.79, 730.20, 785.41, 334.78, 0.000, 0.000, 0.000, 21:11:01.879, 1582472461879
147, 966.95, 719.63, 800.84, 236.20, 0.000, 0.000, 0.000, 21:11:01.879, 1582472461879
148, 974.12, 789.89, 801.21, 369.74, 0.000, 0.000, 0.000, 21:11:01.879, 1582472461879
149, 998.60, 928.99, 860.45, 789.58, 0.000, 0.000, 0.000, 21:11:01.893, 1582472461893
150, 966.02, 754.45, 794.87, 356.38, 0.000, 0.000, 0.000, 21:11:01.893, 1582472461893
151, 954.10, 717.76, 789.35, 233.16, 0.000, 0.000, 0.000, 21:11:01.909, 1582472461909
152, 981.95, 782.79, 821.71, 374.62, 0.000, 0.000, 0.000, 21:11:01.909, 1582472461909
153, 998.56, 924.17, 848.18, 782.63, 0.000, 0.000, 0.000, 21:11:01.924, 1582472461924
154, 976.34, 762.49, 814.67, 358.61, 0.000, 0.000, 0.000, 21:11:01.924, 1582472461924
155, 958.13, 721.48, 793.48, 236.28, 0.000, 0.000, 0.000, 21:11:01.924, 1582472461924
156, 987.82, 795.69, 810.70, 372.67, 0.000, 0.000, 0.000, 21:11:01.924, 1582472461924
157, 1034.91, 952.51, 877.84, 805.54, 0.000, 0.000, 0.000, 21:11:01.939, 1582472461939
158, 969.87, 760.29, 818.41, 359.38, 0.000, 0.000, 0.000, 21:11:01.939, 1582472461939
159, 975.93, 733.24, 806.70, 245.71, 0.000, 0.000, 0.000, 21:11:01.939, 1582472461939
160, 960.45, 784.56, 781.96, 362.50, 0.000, 0.000, 0.000, 21:11:01.939, 1582472461939
161, 1052.57, 962.64, 906.48, 821.64, 0.000, 0.000, 0.000, 21:11:01.953, 1582472461953
162, 1019.61, 799.19, 843.74, 388.96, 0.000, 0.000, 0.000, 21:11:01.953, 1582472461953
163, 967.48, 746.93, 787.30, 249.52, 0.000, 0.000, 0.000, 21:11:01.969, 1582472461969
164, 979.00, 780.06, 823.45, 375.98, 0.000, 0.000, 0.000, 21:11:01.969, 1582472461969
165, 1002.72, 928.10, 859.25, 793.52, 0.000, 0.000, 0.000, 21:11:01.969, 1582472461969
166, 963.16, 760.94, 787.00, 354.45, 0.000, 0.000, 0.000, 21:11:01.969, 1582472461969
167, 958.28, 720.42, 784.38, 240.99, 0.000, 0.000, 0.000, 21:11:01.983, 1582472461983
168, 987.61, 788.77, 825.52, 374.14, 0.000, 0.000, 0.000, 21:11:01.983, 1582472461983
169, 981.02, 919.25, 855.22, 787.46, 0.000, 0.000, 0.000, 21:11:01.999, 1582472461999
170, 973.99, 773.43, 803.79, 358.94, 0.000, 0.000, 0.000, 21:11:01.999, 1582472461999
171, 969.90, 736.15, 793.73, 245.90, 0.000, 0.000, 0.000, 21:11:01.999, 1582472461999
172, 977.37, 782.30, 817.72, 369.58, 0.000, 0.000, 0.000, 21:11:01.999, 1582472461999
173, 1013.78, 941.63, 867.77, 804.25, 0.000, 0.000, 0.000, 21:11:02.013, 1582472462013
174, 989.33, 775.14, 835.11, 370.17, 0.000, 0.000, 0.000, 21:11:02.013, 1582472462013
175, 943.79, 724.03, 768.44, 227.83, 0.000, 0.000, 0.000, 21:11:02.029, 1582472462029
176, 979.61, 787.56, 807.69, 366.84, 0.000, 0.000, 0.000, 21:11:02.029, 1582472462029
177, 998.95, 930.98, 866.39, 794.76, 0.000, 0.000, 0.000, 21:11:02.029, 1582472462029
178, 956.39, 751.95, 791.54, 350.49, 0.000, 0.000, 0.000, 21:11:02.029, 1582472462029
179, 964.02, 730.30, 789.70, 246.58, 0.000, 0.000, 0.000, 21:11:02.043, 1582472462043
180, 966.35, 778.46, 789.67, 355.15, 0.000, 0.000, 0.000, 21:11:02.043, 1582472462043
181, 1033.73, 950.33, 887.29, 810.95, 0.000, 0.000, 0.000, 21:11:02.059, 1582472462059
182, 983.34, 772.38, 838.84, 373.34, 0.000, 0.000, 0.000, 21:11:02.059, 1582472462059
183, 938.96, 709.80, 757.77, 227.37, 0.000, 0.000, 0.000, 21:11:02.059, 1582472462059
184, 997.66, 790.88, 832.14, 369.97, 0.000, 0.000, 0.000, 21:11:02.060, 1582472462060
185, 996.89, 925.56, 852.24, 789.54, 0.000, 0.000, 0.000, 21:11:02.073, 1582472462073
186, 958.93, 754.57, 806.48, 351.94, 0.000, 0.000, 0.000, 21:11:02.073, 1582472462073
187, 941.86, 709.66, 773.90, 229.57, 0.000, 0.000, 0.000, 21:11:02.089, 1582472462089
188, 983.15, 784.43, 818.38, 364.24, 0.000, 0.000, 0.000, 21:11:02.089, 1582472462089
189, 1008.97, 935.25, 871.91, 803.38, 0.000, 0.000, 0.000, 21:11:02.090, 1582472462090
190, 965.80, 766.51, 796.55, 359.65, 0.000, 0.000, 0.000, 21:11:02.090, 1582472462090
191, 953.69, 724.56, 792.69, 238.58, 0.000, 0.000, 0.000, 21:11:02.103, 1582472462103
192, 981.95, 781.63, 818.85, 360.32, 0.000, 0.000, 0.000, 21:11:02.103, 1582472462103
193, 999.39, 939.60, 850.88, 794.74, 0.000, 0.000, 0.000, 21:11:02.120, 1582472462120
194, 982.70, 778.58, 821.06, 370.62, 0.000, 0.000, 0.000, 21:11:02.120, 1582472462120
195, 1003.48, 759.05, 838.17, 268.25, 0.000, 0.000, 0.000, 21:11:02.134, 1582472462134
196, 1000.02, 803.51, 830.66, 374.36, 0.000, 0.000, 0.000, 21:11:02.134, 1582472462134
197, 1053.58, 971.88, 912.95, 827.55, 0.000, 0.000, 0.000, 21:11:02.134, 1582472462134
198, 979.34, 782.62, 816.90, 375.93, 0.000, 0.000, 0.000, 21:11:02.134, 1582472462134
199, 928.09, 703.44, 767.09, 223.46, 0.000, 0.000, 0.000, 21:11:02.165, 1582472462165
200, 984.59, 785.90, 837.66, 369.82, 0.000, 0.000, 0.000, 21:11:02.165, 1582472462165
0, 993.76, 929.44, 843.16, 791.32, 0.000, 0.000, 0.000, 21:11:02.166, 1582472462166
1, 992.11, 777.05, 842.41, 384.25, 0.000, 0.000, 0.000, 21:11:02.167, 1582472462167
2, 937.07, 712.72, 771.94, 234.51, 0.000, 0.000, 0.000, 21:11:02.167, 1582472462167
3, 957.49, 769.29, 781.86, 345.02, 0.000, 0.000, 0.000, 21:11:02.167, 1582472462167
4, 1027.31, 950.33, 880.74, 814.93, 0.000, 0.000, 0.000, 21:11:02.167, 1582472462167
5, 989.49, 787.96, 829.83, 389.99, 0.000, 0.000, 0.000, 21:11:02.178, 1582472462178
6, 1000.16, 750.46, 839.64, 265.82, 0.000, 0.000, 0.000, 21:11:02.178, 1582472462178
7, 959.83, 763.78, 804.62, 345.10, 0.000, 0.000, 0.000, 21:11:02.194, 1582472462194
8, 1010.23, 939.17, 854.27, 799.03, 0.000, 0.000, 0.000, 21:11:02.194, 1582472462194
9, 974.24, 777.47, 816.93, 377.91, 0.000, 0.000, 0.000, 21:11:02.195, 1582472462195
10, 947.92, 722.00, 780.82, 244.36, 0.000, 0.000, 0.000, 21:11:02.195, 1582472462195
11, 983.11, 785.59, 823.78, 363.07, 0.000, 0.000, 0.000, 21:11:02.208, 1582472462208
12, 998.17, 932.93, 854.08, 794.88, 0.000, 0.000, 0.000, 21:11:02.208, 1582472462208
13, 986.25, 788.07, 825.97, 384.43, 0.000, 0.000, 0.000, 21:11:02.224, 1582472462224
14, 963.69, 735.12, 802.66, 248.87, 0.000, 0.000, 0.000, 21:11:02.224, 1582472462224
15, 999.19, 794.47, 846.40, 373.59, 0.000, 0.000, 0.000, 21:11:02.224, 1582472462224
16, 1027.35, 959.27, 879.84, 811.56, 0.000, 0.000, 0.000, 21:11:02.224, 1582472462224
17, 1035.02, 807.67, 896.51, 415.59, 0.000, 0.000, 0.000, 21:11:02.238, 1582472462238
18, 957.61, 732.28, 784.78, 243.10, 0.000, 0.000, 0.000, 21:11:02.238, 1582472462238
19, 982.54, 783.81, 823.54, 358.37, 0.000, 0.000, 0.000, 21:11:02.254, 1582472462254
20, 1029.90, 956.28, 891.09, 816.44, 0.000, 0.000, 0.000, 21:11:02.254, 1582472462254
21, 977.96, 780.88, 830.72, 378.29, 0.000, 0.000, 0.000, 21:11:02.255, 1582472462255
22, 923.51, 708.78, 757.76, 225.02, 0.000, 0.000, 0.000, 21:11:02.255, 1582472462255
23, 945.12, 753.90, 788.02, 329.38, 0.000, 0.000, 0.000, 21:11:02.268, 1582472462268
24, 1021.07, 941.76, 898.80, 805.35, 0.000, 0.000, 0.000, 21:11:02.268, 1582472462268
25, 953.01, 761.09, 803.35, 363.06, 0.000, 0.000, 0.000, 21:11:02.284, 1582472462284
26, 951.56, 719.12, 797.34, 240.80, 0.000, 0.000, 0.000, 21:11:02.284, 1582472462284
27, 973.48, 770.83, 800.64, 341.65, 0.000, 0.000, 0.000, 21:11:02.284, 1582472462284
28, 1035.28, 955.85, 899.46, 817.17, 0.000, 0.000, 0.000, 21:11:02.284, 1582472462284
29, 1002.46, 808.94, 824.96, 394.10, 0.000, 0.000, 0.000, 21:11:02.298, 1582472462298
30, 931.94, 711.18, 776.96, 231.22, 0.000, 0.000, 0.000, 21:11:02.298, 1582472462298
31, 976.46, 780.31, 811.92, 347.32, 0.000, 0.000, 0.000, 21:11:02.330, 1582472462330
32, 1016.45, 956.55, 861.47, 815.77, 0.000, 0.000, 0.000, 21:11:02.330, 1582472462330
33, 985.08, 770.89, 850.72, 389.69, 0.000, 0.000, 0.000, 21:11:02.330, 1582472462330
34, 975.97, 746.38, 819.88, 265.03, 0.000, 0.000, 0.000, 21:11:02.330, 1582472462330
35, 981.10, 780.12, 804.33, 345.53, 0.000, 0.000, 0.000, 21:11:02.331, 1582472462331
36, 1032.09, 953.22, 897.38, 825.55, 0.000, 0.000, 0.000, 21:11:02.331, 1582472462331
37, 983.90, 782.36, 832.76, 384.71, 0.000, 0.000, 0.000, 21:11:02.344, 1582472462344
38, 953.18, 728.77, 787.14, 252.48, 0.000, 0.000, 0.000, 21:11:02.344, 1582472462344
39, 984.91, 786.41, 816.95, 345.96, 0.000, 0.000, 0.000, 21:11:02.344, 1582472462344
40, 974.80, 915.49, 836.09, 788.87, 0.000, 0.000, 0.000, 21:11:02.344, 1582472462344
41, 967.34, 765.34, 821.04, 376.37, 0.000, 0.000, 0.000, 21:11:02.358, 1582472462358
42, 959.83, 725.59, 805.13, 252.73, 0.000, 0.000, 0.000, 21:11:02.358, 1582472462358
43, 964.72, 767.16, 802.70, 335.27, 0.000, 0.000, 0.000, 21:11:02.374, 1582472462374
44, 1009.03, 935.26, 875.29, 807.84, 0.000, 0.000, 0.000, 21:11:02.374, 1582472462374
45, 942.64, 747.16, 783.27, 360.39, 0.000, 0.000, 0.000, 21:11:02.374, 1582472462374
46, 967.38, 735.70, 814.97, 254.64, 0.000, 0.000, 0.000, 21:11:02.374, 1582472462374
47, 997.03, 792.62, 830.67, 354.38, 0.000, 0.000, 0.000, 21:11:02.388, 1582472462388
48, 1019.94, 948.51, 873.30, 806.58, 0.000, 0.000, 0.000, 21:11:02.388, 1582472462388
49, 970.77, 773.29, 827.79, 382.94, 0.000, 0.000, 0.000, 21:11:02.404, 1582472462404
50, 979.87, 749.72, 816.95, 264.52, 0.000, 0.000, 0.000, 21:11:02.404, 1582472462404
51, 1001.13, 785.64, 844.40, 355.15, 0.000, 0.000, 0.000, 21:11:02.404, 1582472462404
52, 982.11, 927.63, 847.77, 790.37, 0.000, 0.000, 0.000, 21:11:02.404, 1582472462404
53, 974.63, 775.15, 811.61, 382.51, 0.000, 0.000, 0.000, 21:11:02.418, 1582472462418
54, 975.60, 743.41, 815.08, 258.83, 0.000, 0.000, 0.000, 21:11:02.418, 1582472462418
55, 985.31, 775.86, 847.03, 350.85, 0.000, 0.000, 0.000, 21:11:02.434, 1582472462434
56, 1042.02, 963.16, 918.75, 829.64, 0.000, 0.000, 0.000, 21:11:02.434, 1582472462434
57, 983.90, 783.70, 820.96, 394.69, 0.000, 0.000, 0.000, 21:11:02.435, 1582472462435
58, 965.44, 736.29, 798.58, 255.09, 0.000, 0.000, 0.000, 21:11:02.435, 1582472462435
59, 982.57, 787.99, 829.97, 353.33, 0.000, 0.000, 0.000, 21:11:02.448, 1582472462448
60, 1032.43, 954.34, 895.19, 818.89, 0.000, 0.000, 0.000, 21:11:02.448, 1582472462448
61, 982.48, 781.76, 832.51, 384.49, 0.000, 0.000, 0.000, 21:11:02.464, 1582472462464
62, 1004.37, 764.97, 835.17, 275.92, 0.000, 0.000, 0.000, 21:11:02.464, 1582472462464
63, 983.62, 771.48, 826.60, 337.11, 0.000, 0.000, 0.000, 21:11:02.464, 1582472462464
64, 1029.54, 953.79, 900.15, 824.47, 0.000, 0.000, 0.000, 21:11:02.464, 1582472462464
65, 970.33, 779.37, 818.59, 383.32, 0.000, 0.000, 0.000, 21:11:02.478, 1582472462478
66, 988.24, 753.85, 833.45, 268.72, 0.000, 0.000, 0.000, 21:11:02.478, 1582472462478
67, 961.03, 763.33, 799.86, 323.76, 0.000, 0.000, 0.000, 21:11:02.494, 1582472462494
68, 1015.16, 949.64, 861.90, 811.11, 0.000, 0.000, 0.000, 21:11:02.494, 1582472462494
69, 958.82, 760.88, 812.74, 376.40, 0.000, 0.000, 0.000, 21:11:02.494, 1582472462494
70, 956.46, 725.35, 808.62, 250.62, 0.000, 0.000, 0.000, 21:11:02.494, 1582472462494
71, 956.33, 755.42, 795.85, 320.16, 0.000, 0.000, 0.000, 21:11:02.508, 1582472462508
72, 1027.73, 939.66, 888.96, 806.61, 0.000, 0.000, 0.000, 21:11:02.508, 1582472462508
73, 993.86, 782.64, 856.82, 401.15, 0.000, 0.000, 0.000, 21:11:02.524, 1582472462524
74, 977.99, 737.85, 814.44, 257.77, 0.000, 0.000, 0.000, 21:11:02.524, 1582472462524
75, 950.10, 762.49, 782.26, 323.37, 0.000, 0.000, 0.000, 21:11:02.524, 1582472462524
76, 1023.56, 951.59, 896.94, 819.48, 0.000, 0.000, 0.000, 21:11:02.524, 1582472462524
77, 1009.79, 793.57, 867.57, 411.70, 0.000, 0.000, 0.000, 21:11:02.538, 1582472462538
78, 1024.38, 779.98, 874.66, 304.66, 0.000, 0.000, 0.000, 21:11:02.538, 1582472462538
79, 1017.21, 808.85, 848.47, 367.19, 0.000, 0.000, 0.000, 21:11:02.554, 1582472462554
80, 1019.22, 968.07, 867.48, 824.65, 0.000, 0.000, 0.000, 21:11:02.554, 1582472462554
81, 1018.46, 807.66, 878.51, 419.86, 0.000, 0.000, 0.000, 21:11:02.554, 1582472462554
82, 999.60, 756.13, 870.49, 288.38, 0.000, 0.000, 0.000, 21:11:02.554, 1582472462554
83, 999.10, 795.86, 823.45, 351.53, 0.000, 0.000, 0.000, 21:11:02.568, 1582472462568
84, 1035.90, 961.29, 897.41, 829.73, 0.000, 0.000, 0.000, 21:11:02.568, 1582472462568
85, 972.42, 761.72, 842.26, 389.41, 0.000, 0.000, 0.000, 21:11:02.584, 1582472462584
86, 989.31, 748.37, 830.65, 268.34, 0.000, 0.000, 0.000, 21:11:02.584, 1582472462584
87, 955.22, 757.31, 804.96, 321.86, 0.000, 0.000, 0.000, 21:11:02.584, 1582472462584
88, 1006.68, 937.55, 882.78, 814.22, 0.000, 0.000, 0.000, 21:11:02.584, 1582472462584
89, 997.73, 787.05, 847.19, 403.99, 0.000, 0.000, 0.000, 21:11:02.598, 1582472462598
90, 979.98, 746.66, 801.29, 260.57, 0.000, 0.000, 0.000, 21:11:02.598, 1582472462598
91, 979.70, 767.74, 825.86, 324.73, 0.000, 0.000, 0.000, 21:11:02.614, 1582472462614
92, 1031.38, 953.61, 912.72, 825.05, 0.000, 0.000, 0.000, 21:11:02.614, 1582472462614
93, 995.54, 791.01, 845.18, 403.44, 0.000, 0.000, 0.000, 21:11:02.614, 1582472462614
94, 950.61, 727.92, 776.57, 249.74, 0.000, 0.000, 0.000, 21:11:02.614, 1582472462614
95, 1004.40, 788.90, 848.52, 349.64, 0.000, 0.000, 0.000, 21:11:02.645, 1582472462645
96, 1021.25, 947.92, 898.17, 824.47, 0.000, 0.000, 0.000, 21:11:02.645, 1582472462645
97, 990.62, 785.19, 838.50, 407.87, 0.000, 0.000, 0.000, 21:11:02.645, 1582472462645
98, 963.96, 729.77, 797.53, 260.86, 0.000, 0.000, 0.000, 21:11:02.645, 1582472462645
99, 980.97, 774.79, 807.58, 334.34, 0.000, 0.000, 0.000, 21:11:02.646, 1582472462646
100, 1053.83, 963.89, 919.43, 836.08, 0.000, 0.000, 0.000, 21:11:02.646, 1582472462646
101, 979.75, 776.90, 829.68, 397.29, 0.000, 0.000, 0.000, 21:11:02.658, 1582472462658
102, 928.96, 712.08, 768.48, 234.65, 0.000, 0.000, 0.000, 21:11:02.658, 1582472462658
103, 950.78, 746.72, 795.75, 302.06, 0.000, 0.000, 0.000, 21:11:02.674, 1582472462674
104, 1041.59, 947.83, 923.19, 826.93, 0.000, 0.000, 0.000, 21:11:02.674, 1582472462674
105, 967.67, 764.94, 813.43, 385.26, 0.000, 0.000, 0.000, 21:11:02.674, 1582472462674
106, 1007.04, 757.10, 857.67, 276.26, 0.000, 0.000, 0.000, 21:11:02.674, 1582472462674
107, 957.45, 754.30, 808.16, 313.68, 0.000, 0.000, 0.000, 21:11:02.688, 1582472462688
108, 1005.77, 940.50, 862.83, 799.47, 0.000, 0.000, 0.000, 21:11:02.688, 1582472462688
109, 970.05, 776.35, 814.92, 386.49, 0.000, 0.000, 0.000, 21:11:02.720, 1582472462720
110, 978.73, 736.36, 824.23, 261.91, 0.000, 0.000, 0.000, 21:11:02.720, 1582472462720
111, 968.32, 759.56, 807.56, 321.31, 0.000, 0.000, 0.000, 21:11:02.720, 1582472462720
112, 1031.13, 946.08, 910.66, 822.06, 0.000, 0.000, 0.000, 21:11:02.720, 1582472462720
113, 953.74, 755.61, 800.12, 376.95, 0.000, 0.000, 0.000, 21:11:02.721, 1582472462721
114, 960.82, 724.60, 797.41, 254.09, 0.000, 0.000, 0.000, 21:11:02.721, 1582472462721
115, 958.74, 753.82, 798.65, 308.04, 0.000, 0.000, 0.000, 21:11:02.734, 1582472462734
116, 1053.92, 971.32, 904.86, 835.10, 0.000, 0.000, 0.000, 21:11:02.734, 1582472462734
117, 1001.34, 798.39, 853.04, 407.05, 0.000, 0.000, 0.000, 21:11:02.734, 1582472462734
118, 945.32, 718.65, 789.14, 247.37, 0.000, 0.000, 0.000, 21:11:02.734, 1582472462734
119, 965.54, 753.63, 810.22, 313.39, 0.000, 0.000, 0.000, 21:11:02.748, 1582472462748
120, 1033.77, 949.50, 920.46, 827.01, 0.000, 0.000, 0.000, 21:11:02.748, 1582472462748
121, 973.37, 779.50, 818.54, 395.36, 0.000, 0.000, 0.000, 21:11:02.764, 1582472462764
122, 967.79, 737.94, 800.74, 261.12, 0.000, 0.000, 0.000, 21:11:02.764, 1582472462764
123, 983.07, 771.30, 832.16, 322.31, 0.000, 0.000, 0.000, 21:11:02.764, 1582472462764
124, 1017.00, 939.75, 885.58, 810.19, 0.000, 0.000, 0.000, 21:11:02.764, 1582472462764
125, 955.99, 752.10, 813.83, 379.67, 0.000, 0.000, 0.000, 21:11:02.778, 1582472462778
126, 932.50, 706.46, 767.48, 234.80, 0.000, 0.000, 0.000, 21:11:02.778, 1582472462778
127, 964.64, 758.27, 806.72, 306.81, 0.000, 0.000, 0.000, 21:11:02.794, 1582472462794
128, 1023.59, 934.07, 899.92, 813.64, 0.000, 0.000, 0.000, 21:11:02.794, 1582472462794
129, 974.68, 773.18, 834.00, 390.60, 0.000, 0.000, 0.000, 21:11:02.795, 1582472462795
130, 961.76, 734.82, 791.66, 256.28, 0.000, 0.000, 0.000, 21:11:02.795, 1582472462795
131, 966.75, 769.16, 807.34, 315.73, 0.000, 0.000, 0.000, 21:11:02.808, 1582472462808
132, 1045.61, 959.79, 932.23, 836.21, 0.000, 0.000, 0.000, 21:11:02.808, 1582472462808
133, 996.60, 788.22, 853.25, 403.97, 0.000, 0.000, 0.000, 21:11:02.824, 1582472462824
134, 956.08, 734.26, 786.92, 256.67, 0.000, 0.000, 0.000, 21:11:02.824, 1582472462824
135, 960.85, 758.67, 792.75, 308.08, 0.000, 0.000, 0.000, 21:11:02.824, 1582472462824
136, 1013.46, 942.83, 882.33, 811.82, 0.000, 0.000, 0.000, 21:11:02.824, 1582472462824
137, 1002.55, 796.68, 846.44, 414.87, 0.000, 0.000, 0.000, 21:11:02.838, 1582472462838
138, 973.42, 729.27, 821.24, 254.06, 0.000, 0.000, 0.000, 21:11:02.838, 1582472462838
139, 936.57, 738.05, 797.19, 286.65, 0.000, 0.000, 0.000, 21:11:02.854, 1582472462854
140, 984.66, 919.42, 856.11, 787.86, 0.000, 0.000, 0.000, 21:11:02.854, 1582472462854
141, 990.79, 784.83, 847.18, 396.20, 0.000, 0.000, 0.000, 21:11:02.855, 1582472462855
142, 981.93, 737.57, 830.21, 258.50, 0.000, 0.000, 0.000, 21:11:02.855, 1582472462855
143, 968.80, 758.72, 805.60, 293.66, 0.000, 0.000, 0.000, 21:11:02.868, 1582472462868
144, 1013.32, 939.67, 893.45, 803.76, 0.000, 0.000, 0.000, 21:11:02.868, 1582472462868
145, 948.29, 761.00, 794.03, 368.30, 0.000, 0.000, 0.000, 21:11:02.884, 1582472462884
146, 929.46, 699.32, 779.11, 223.00, 0.000, 0.000, 0.000, 21:11:02.884, 1582472462884
147, 943.52, 736.82, 786.12, 274.74, 0.000, 0.000, 0.000, 21:11:02.884, 1582472462884
148, 1005.20, 937.06, 875.80, 797.03, 0.000, 0.000, 0.000, 21:11:02.884, 1582472462884
149, 985.55, 790.87, 826.64, 396.88, 0.000, 0.000, 0.000, 21:11:02.898, 1582472462898
150, 995.94, 744.22, 857.11, 271.84, 0.000, 0.000, 0.000, 21:11:02.898, 1582472462898
151, 968.81, 766.04, 789.55, 295.68, 0.000, 0.000, 0.000, 21:11:02.930, 1582472462930
152, 986.78, 928.17, 848.92, 789.63, 0.000, 0.000, 0.000, 21:11:02.930, 1582472462930
153, 976.52, 775.16, 843.09, 396.65, 0.000, 0.000, 0.000, 21:11:02.930, 1582472462930
154, 942.83, 722.33, 783.50, 237.04, 0.000, 0.000, 0.000, 21:11:02.930, 1582472462930
155, 961.23, 753.92, 801.88, 289.59, 0.000, 0.000, 0.000, 21:11:02.931, 1582472462931
156, 1049.84, 965.30, 922.04, 825.45, 0.000, 0.000, 0.000, 21:11:02.931, 1582472462931
157, 969.43, 768.07, 828.09, 391.40, 0.000, 0.000, 0.000, 21:11:02.944, 1582472462944
158, 956.15, 726.94, 803.01, 247.81, 0.000, 0.000, 0.000, 21:11:02.944, 1582472462944
159, 947.74, 747.00, 793.63, 284.24, 0.000, 0.000, 0.000, 21:11:02.959, 1582472462959
160, 1025.26, 961.05, 885.83, 808.59, 0.000, 0.000, 0.000, 21:11:02.959, 1582472462959
161, 1009.48, 809.22, 847.02, 410.74, 0.000, 0.000, 0.000, 21:11:02.959, 1582472462959
162, 988.72, 756.05, 822.84, 262.99, 0.000, 0.000, 0.000, 21:11:02.959, 1582472462959
163, 968.69, 752.50, 819.14, 301.02, 0.000, 0.000, 0.000, 21:11:02.974, 1582472462974
164, 1003.29, 947.57, 874.36, 806.03, 0.000, 0.000, 0.000, 21:11:02.974, 1582472462974
165, 978.01, 790.81, 827.68, 393.43, 0.000, 0.000, 0.000, 21:11:02.974, 1582472462974
166, 984.67, 751.24, 841.70, 272.36, 0.000, 0.000, 0.000, 21:11:02.974, 1582472462974
167, 984.87, 771.13, 838.72, 314.21, 0.000, 0.000, 0.000, 21:11:02.988, 1582472462988
168, 1021.93, 953.69, 889.10, 813.00, 0.000, 0.000, 0.000, 21:11:02.988, 1582472462988
169, 1025.02, 817.80, 882.61, 433.43, 0.000, 0.000, 0.000, 21:11:03.004, 1582472463004
170, 984.61, 748.89, 816.15, 265.90, 0.000, 0.000, 0.000, 21:11:03.004, 1582472463004
171, 988.38, 779.69, 833.20, 307.66, 0.000, 0.000, 0.000, 21:11:03.004, 1582472463004
172, 1044.12, 964.59, 919.05, 829.13, 0.000, 0.000, 0.000, 21:11:03.004, 1582472463004
173, 975.18, 773.21, 824.86, 393.10, 0.000, 0.000, 0.000, 21:11:03.018, 1582472463018
174, 989.74, 750.59, 835.18, 267.43, 0.000, 0.000, 0.000, 21:11:03.018, 1582472463018
175, 956.54, 746.61, 810.92, 285.12, 0.000, 0.000, 0.000, 21:11:03.034, 1582472463034
176, 995.75, 940.60, 846.72, 800.03, 0.000, 0.000, 0.000, 21:11:03.034, 1582472463034
177, 981.91, 787.98, 839.59, 408.41, 0.000, 0.000, 0.000, 21:11:03.034, 1582472463034
178, 1002.55, 767.85, 844.35, 283.10, 0.000, 0.000, 0.000, 21:11:03.034, 1582472463034
179, 986.00, 773.39, 837.58, 300.39, 0.000, 0.000, 0.000, 21:11:03.048, 1582472463048
180, 1029.25, 954.71, 901.49, 811.82, 0.000, 0.000, 0.000, 21:11:03.048, 1582472463048
181, 991.80, 784.20, 853.71, 409.29, 0.000, 0.000, 0.000, 21:11:03.064, 1582472463064
182, 942.26, 724.39, 787.31, 243.67, 0.000, 0.000, 0.000, 21:11:03.064, 1582472463064
183, 974.04, 760.03, 807.87, 290.64, 0.000, 0.000, 0.000, 21:11:03.064, 1582472463064
184, 1019.98, 951.61, 896.81, 807.83, 0.000, 0.000, 0.000, 21:11:03.064, 1582472463064
185, 1002.27, 801.75, 833.80, 419.41, 0.000, 0.000, 0.000, 21:11:03.078, 1582472463078
186, 971.23, 741.36, 814.67, 259.22, 0.000, 0.000, 0.000, 21:11:03.078, 1582472463078
187, 975.23, 756.93, 823.18, 300.88, 0.000, 0.000, 0.000, 21:11:03.094, 1582472463094
188, 1018.21, 946.35, 897.33, 816.10, 0.000, 0.000, 0.000, 21:11:03.094, 1582472463094
189, 974.40, 786.11, 820.55, 403.03, 0.000, 0.000, 0.000, 21:11:03.094, 1582472463094
190, 975.42, 735.58, 824.00, 261.41, 0.000, 0.000, 0.000, 21:11:03.094, 1582472463094
191, 968.69, 754.53, 798.39, 287.15, 0.000, 0.000, 0.000, 21:11:03.108, 1582472463108
192, 1034.24, 961.94, 909.38, 817.56, 0.000, 0.000, 0.000, 21:11:03.108, 1582472463108
193, 992.19, 795.46, 846.17, 410.16, 0.000, 0.000, 0.000, 21:11:03.124, 1582472463124
194, 949.04, 720.88, 789.58, 236.70, 0.000, 0.000, 0.000, 21:11:03.124, 1582472463124
195, 962.85, 751.78, 812.16, 282.69, 0.000, 0.000, 0.000, 21:11:03.124, 1582472463124
196, 1057.48, 972.60, 925.11, 823.85, 0.000, 0.000, 0.000, 21:11:03.124, 1582472463124
197, 968.12, 776.54, 817.04, 398.30, 0.000, 0.000, 0.000, 21:11:03.138, 1582472463138
198, 977.01, 741.02, 826.07, 257.07, 0.000, 0.000, 0.000, 21:11:03.138, 1582472463138
199, 984.25, 754.50, 845.59, 286.37, 0.000, 0.000, 0.000, 21:11:03.154, 1582472463154
200, 1008.13, 937.41, 868.50, 804.59, 0.000, 0.000, 0.000, 21:11:03.154, 1582472463154
0, 944.21, 755.80, 792.59, 379.78, 0.000, 0.000, 0.000, 21:11:03.154, 1582472463154
1, 933.00, 709.37, 781.28, 232.88, 0.000, 0.000, 0.000, 21:11:03.169, 1582472463169
2, 968.61, 748.46, 808.39, 273.81, 0.000, 0.000, 0.000, 21:11:03.169, 1582472463169
3, 1015.58, 937.93, 886.23, 802.63, 0.000, 0.000, 0.000, 21:11:03.169, 1582472463169
4, 1005.85, 798.58, 852.96, 418.61, 0.000, 0.000, 0.000, 21:11:03.169, 1582472463169
5, 948.54, 726.58, 775.77, 240.05, 0.000, 0.000, 0.000, 21:11:03.183, 1582472463183
6, 967.61, 744.64, 815.48, 279.27, 0.000, 0.000, 0.000, 21:11:03.183, 1582472463183
7, 1016.71, 943.53, 887.38, 801.73, 0.000, 0.000, 0.000, 21:11:03.199, 1582472463199
8, 967.53, 768.98, 827.95, 396.97, 0.000, 0.000, 0.000, 21:11:03.199, 1582472463199
9, 948.40, 717.64, 796.66, 242.81, 0.000, 0.000, 0.000, 21:11:03.199, 1582472463199
10, 964.39, 748.97, 802.67, 276.95, 0.000, 0.000, 0.000, 21:11:03.199, 1582472463199
11, 1007.57, 931.10, 875.48, 796.29, 0.000, 0.000, 0.000, 21:11:03.213, 1582472463213
12, 949.65, 759.41, 794.22, 387.15, 0.000, 0.000, 0.000, 21:11:03.213, 1582472463213
13, 981.04, 742.56, 807.56, 261.71, 0.000, 0.000, 0.000, 21:11:03.229, 1582472463229
14, 974.20, 749.51, 821.99, 283.46, 0.000, 0.000, 0.000, 21:11:03.229, 1582472463229
15, 1026.49, 952.71, 886.70, 813.84, 0.000, 0.000, 0.000, 21:11:03.229, 1582472463229
16, 971.63, 781.74, 820.70, 404.17, 0.000, 0.000, 0.000, 21:11:03.229, 1582472463229
17, 977.77, 746.53, 821.31, 266.64, 0.000, 0.000, 0.000, 21:11:03.245, 1582472463245
18, 963.65, 752.23, 815.45, 279.65, 0.000, 0.000, 0.000, 21:11:03.245, 1582472463245
19, 1045.40, 971.34, 898.25, 826.40, 0.000, 0.000, 0.000, 21:11:03.275, 1582472463275
20, 962.36, 771.59, 806.94, 399.83, 0.000, 0.000, 0.000, 21:11:03.275, 1582472463275
21, 945.29, 714.58, 801.01, 248.15, 0.000, 0.000, 0.000, 21:11:03.275, 1582472463275
22, 954.15, 731.57, 802.95, 266.33, 0.000, 0.000, 0.000, 21:11:03.275, 1582472463275
23, 987.95, 929.53, 852.26, 791.98, 0.000, 0.000, 0.000, 21:11:03.276, 1582472463276
24, 954.28, 765.81, 815.94, 391.79, 0.000, 0.000, 0.000, 21:11:03.276, 1582472463276
25, 987.35, 747.96, 822.13, 263.66, 0.000, 0.000, 0.000, 21:11:03.289, 1582472463289
26, 998.66, 772.84, 829.44, 290.74, 0.000, 0.000, 0.000, 21:11:03.289, 1582472463289
27, 996.00, 917.07, 879.85, 796.82, 0.000, 0.000, 0.000, 21:11:03.304, 1582472463304
28, 944.63, 760.71, 798.81, 387.08, 0.000, 0.000, 0.000, 21:11:03.304, 1582472463304
29, 949.82, 718.45, 774.17, 241.79, 0.000, 0.000, 0.000, 21:11:03.304, 1582472463304
30, 995.36, 763.05, 836.09, 286.69, 0.000, 0.000, 0.000, 21:11:03.304, 1582472463304
31, 1025.21, 944.30, 926.50, 816.78, 0.000, 0.000, 0.000, 21:11:03.319, 1582472463319
32, 936.92, 763.40, 786.39, 386.24, 0.000, 0.000, 0.000, 21:11:03.319, 1582472463319
33, 947.79, 723.30, 790.36, 249.39, 0.000, 0.000, 0.000, 21:11:03.319, 1582472463319
34, 966.69, 752.67, 806.82, 275.68, 0.000, 0.000, 0.000, 21:11:03.319, 1582472463319
35, 1024.94, 954.52, 896.80, 823.46, 0.000, 0.000, 0.000, 21:11:03.333, 1582472463333
36, 965.84, 786.05, 806.59, 408.87, 0.000, 0.000, 0.000, 21:11:03.333, 1582472463333
37, 974.74, 748.42, 817.91, 266.08, 0.000, 0.000, 0.000, 21:11:03.349, 1582472463349
38, 987.71, 755.96, 854.92, 292.51, 0.000, 0.000, 0.000, 21:11:03.349, 1582472463349
39, 1021.26, 952.54, 878.51, 811.35, 0.000, 0.000, 0.000, 21:11:03.349, 1582472463349
40, 956.88, 775.08, 810.67, 403.65, 0.000, 0.000, 0.000, 21:11:03.349, 1582472463349
41, 952.91, 730.95, 793.92, 258.38, 0.000, 0.000, 0.000, 21:11:03.363, 1582472463363
42, 975.28, 748.71, 831.12, 280.57, 0.000, 0.000, 0.000, 21:11:03.363, 1582472463363
43, 1023.02, 948.85, 895.64, 813.97, 0.000, 0.000, 0.000, 21:11:03.379, 1582472463379
44, 969.34, 775.51, 821.34, 404.57, 0.000, 0.000, 0.000, 21:11:03.379, 1582472463379
45, 963.73, 748.08, 801.32, 259.96, 0.000, 0.000, 0.000, 21:11:03.380, 1582472463380
46, 991.85, 772.89, 816.37, 281.31, 0.000, 0.000, 0.000, 21:11:03.380, 1582472463380
47, 1018.03, 942.10, 902.46, 813.20, 0.000, 0.000, 0.000, 21:11:03.393, 1582472463393
48, 953.23, 764.24, 819.61, 396.94, 0.000, 0.000, 0.000, 21:11:03.393, 1582472463393
49, 938.99, 718.74, 773.01, 240.05, 0.000, 0.000, 0.000, 21:11:03.409, 1582472463409
50, 958.08, 738.40, 790.98, 263.33, 0.000, 0.000, 0.000, 21:11:03.409, 1582472463409
51, 1016.88, 950.29, 883.42, 810.32, 0.000, 0.000, 0.000, 21:11:03.409, 1582472463409
52, 1001.09, 803.15, 853.39, 421.47, 0.000, 0.000, 0.000, 21:11:03.409, 1582472463409
53, 941.93, 710.01, 814.86, 248.42, 0.000, 0.000, 0.000, 21:11:03.423, 1582472463423
54, 942.75, 728.97, 780.51, 254.45, 0.000, 0.000, 0.000, 21:11:03.423, 1582472463423
55, 998.37, 932.50, 861.87, 801.93, 0.000, 0.000, 0.000, 21:11:03.439, 1582472463439
56, 941.05, 756.82, 790.68, 391.19, 0.000, 0.000, 0.000, 21:11:03.439, 1582472463439
57, 940.95, 712.74, 795.66, 243.48, 0.000, 0.000, 0.000, 21:11:03.439, 1582472463439
58, 951.63, 730.42, 810.61, 257.68, 0.000, 0.000, 0.000, 21:11:03.439, 1582472463439
59, 1011.82, 940.82, 871.46, 798.15, 0.000, 0.000, 0.000, 21:11:03.453, 1582472463453
60, 953.93, 768.77, 798.92, 395.24, 0.000, 0.000, 0.000, 21:11:03.453, 1582472463453
61, 931.18, 710.70, 771.87, 235.12, 0.000, 0.000, 0.000, 21:11:03.469, 1582472463469
62, 949.71, 721.37, 797.94, 246.01, 0.000, 0.000, 0.000, 21:11:03.469, 1582472463469
63, 989.09, 922.26, 852.95, 781.27, 0.000, 0.000, 0.000, 21:11:03.469, 1582472463469
64, 967.03, 770.44, 823.94, 409.00, 0.000, 0.000, 0.000, 21:11:03.469, 1582472463469
65, 936.01, 713.46, 777.07, 239.96, 0.000, 0.000, 0.000, 21:11:03.483, 1582472463483
66, 945.35, 725.00, 778.11, 247.37, 0.000, 0.000, 0.000, 21:11:03.483, 1582472463483
67, 995.70, 927.15, 866.17, 790.86, 0.000, 0.000, 0.000, 21:11:03.515, 1582472463515
68, 981.43, 780.00, 837.61, 412.28, 0.000, 0.000, 0.000, 21:11:03.515, 1582472463515
69, 966.55, 731.81, 816.72, 254.59, 0.000, 0.000, 0.000, 21:11:03.515, 1582472463515
70, 958.97, 738.71, 811.78, 258.81, 0.000, 0.000, 0.000, 21:11:03.515, 1582472463515
71, 975.89, 916.40, 835.59, 778.85, 0.000, 0.000, 0.000, 21:11:03.516, 1582472463516
72, 965.51, 778.10, 817.54, 409.34, 0.000, 0.000, 0.000, 21:11:03.516, 1582472463516
73, 934.18, 708.99, 779.09, 239.33, 0.000, 0.000, 0.000, 21:11:03.545, 1582472463545
74, 925.84, 702.15, 767.00, 225.61, 0.000, 0.000, 0.000, 21:11:03.545, 1582472463545
75, 965.05, 900.18, 834.02, 766.11, 0.000, 0.000, 0.000, 21:11:03.545, 1582472463545
76, 903.68, 719.41, 751.16, 358.97, 0.000, 0.000, 0.000, 21:11:03.545, 1582472463545
77, 898.57, 667.83, 742.68, 194.54, 0.000, 0.000, 0.000, 21:11:03.546, 1582472463546
78, 857.38, 640.02, 707.69, 171.38, 0.000, 0.000, 0.000, 21:11:03.546, 1582472463546
79, 873.73, 825.71, 739.23, 703.32, 0.000, 0.000, 0.000, 21:11:03.559, 1582472463559
80, 840.30, 656.95, 701.08, 310.07, 0.000, 0.000, 0.000, 21:11:03.559, 1582472463559
81, 808.25, 593.18, 647.73, 127.38, 0.000, 0.000, 0.000, 21:11:03.560, 1582472463560
82, 808.16, 596.71, 651.58, 124.16, 0.000, 0.000, 0.000, 21:11:03.560, 1582472463560
83, 843.76, 785.71, 715.87, 665.15, 0.000, 0.000, 0.000, 21:11:03.573, 1582472463573
84, 774.73, 599.84, 643.79, 248.64, 0.000, 0.000, 0.000, 21:11:03.573, 1582472463573
85, 767.05, 549.49, 618.39, 87.34, 0.000, 0.000, 0.000, 21:11:03.589, 1582472463589
86, 772.59, 558.30, 620.60, 89.53, 0.000, 0.000, 0.000, 21:11:03.589, 1582472463589
87, 814.10, 756.71, 681.33, 632.56, 0.000, 0.000, 0.000, 21:11:03.590, 1582472463590
88, 794.28, 610.74, 649.16, 256.42, 0.000, 0.000, 0.000, 21:11:03.590, 1582472463590
89, 772.32, 563.84, 595.48, 90.35, 0.000, 0.000, 0.000, 21:11:03.603, 1582472463603
90, 765.18, 544.79, 615.77, 81.37, 0.000, 0.000, 0.000, 21:11:03.603, 1582472463603
91, 808.04, 752.60, 677.37, 641.74, 0.000, 0.000, 0.000, 21:11:03.619, 1582472463619
92, 773.19, 601.65, 624.40, 251.35, 0.000, 0.000, 0.000, 21:11:03.619, 1582472463619
93, 785.00, 552.13, 641.50, 95.52, 0.000, 0.000, 0.000, 21:11:03.619, 1582472463619
94, 745.23, 538.30, 598.25, 76.99, 0.000, 0.000, 0.000, 21:11:03.619, 1582472463619
95, 817.85, 776.50, 688.96, 655.09, 0.000, 0.000, 0.000, 21:11:03.633, 1582472463633
96, 825.93, 644.49, 679.30, 294.83, 0.000, 0.000, 0.000, 21:11:03.633, 1582472463633
97, 813.76, 587.44, 663.02, 125.90, 0.000, 0.000, 0.000, 21:11:03.649, 1582472463649
98, 831.90, 619.15, 667.66, 143.58, 0.000, 0.000, 0.000, 21:11:03.649, 1582472463649
99, 933.85, 858.71, 814.12, 741.86, 0.000, 0.000, 0.000, 21:11:03.649, 1582472463649
100, 887.22, 701.35, 748.24, 352.76, 0.000, 0.000, 0.000, 21:11:03.649, 1582472463649
101, 878.68, 670.47, 718.14, 196.12, 0.000, 0.000, 0.000, 21:11:03.663, 1582472463663
102, 915.66, 703.04, 753.65, 219.18, 0.000, 0.000, 0.000, 21:11:03.663, 1582472463663
103, 1062.76, 970.49, 943.65, 829.57, 0.000, 0.000, 0.000, 21:11:03.679, 1582472463679
104, 1007.09, 820.21, 842.02, 443.64, 0.000, 0.000, 0.000, 21:11:03.679, 1582472463679
105, 954.14, 736.44, 799.91, 265.77, 0.000, 0.000, 0.000, 21:11:03.679, 1582472463679
106, 987.14, 753.97, 834.94, 277.61, 0.000, 0.000, 0.000, 21:11:03.679, 1582472463679
107, 1078.11, 1005.60, 944.82, 853.96, 0.000, 0.000, 0.000, 21:11:03.693, 1582472463693
108, 1067.13, 865.34, 935.11, 502.32, 0.000, 0.000, 0.000, 21:11:03.693, 1582472463693
109, 1056.92, 809.38, 905.67, 338.29, 0.000, 0.000, 0.000, 21:11:03.709, 1582472463709
110, 1072.15, 818.96, 923.64, 335.60, 0.000, 0.000, 0.000, 21:11:03.709, 1582472463709
111, 1131.33, 1044.22, 1010.23, 905.92, 0.000, 0.000, 0.000, 21:11:03.709, 1582472463709
112, 1090.90, 898.96, 929.68, 530.51, 0.000, 0.000, 0.000, 21:11:03.709, 1582472463709
113, 1093.22, 849.33, 940.03, 366.79, 0.000, 0.000, 0.000, 21:11:03.723, 1582472463723
114, 1083.30, 844.84, 919.25, 352.15, 0.000, 0.000, 0.000, 21:11:03.723, 1582472463723
115, 1173.34, 1084.43, 1044.20, 939.75, 0.000, 0.000, 0.000, 21:11:03.754, 1582472463754
116, 1142.86, 932.34, 982.27, 563.18, 0.000, 0.000, 0.000, 21:11:03.754, 1582472463754
117, 1140.99, 880.82, 985.74, 400.02, 0.000, 0.000, 0.000, 21:11:03.755, 1582472463755
118, 1146.06, 893.59, 978.20, 394.16, 0.000, 0.000, 0.000, 21:11:03.755, 1582472463755
119, 1167.67, 1082.55, 1031.02, 946.22, 0.000, 0.000, 0.000, 21:11:03.756, 1582472463756
120, 1158.28, 942.01, 998.77, 578.70, 0.000, 0.000, 0.000, 21:11:03.756, 1582472463756
121, 1114.99, 864.35, 971.60, 390.52, 0.000, 0.000, 0.000, 21:11:03.769, 1582472463769
122, 1091.42, 849.65, 932.73, 364.15, 0.000, 0.000, 0.000, 21:11:03.769, 1582472463769
123, 1170.61, 1083.80, 1009.34, 937.00, 0.000, 0.000, 0.000, 21:11:03.769, 1582472463769
124, 1133.46, 924.46, 985.98, 557.31, 0.000, 0.000, 0.000, 21:11:03.769, 1582472463769
125, 1110.16, 861.58, 947.31, 377.31, 0.000, 0.000, 0.000, 21:11:03.783, 1582472463783
126, 1117.99, 872.10, 963.81, 370.52, 0.000, 0.000, 0.000, 21:11:03.783, 1582472463783
127, 1177.10, 1086.58, 1047.12, 945.18, 0.000, 0.000, 0.000, 21:11:03.799, 1582472463799
128, 1124.95, 922.65, 968.41, 557.60, 0.000, 0.000, 0.000, 21:11:03.799, 1582472463799
129, 1127.96, 873.74, 961.08, 383.78, 0.000, 0.000, 0.000, 21:11:03.799, 1582472463799
130, 1163.30, 891.43, 995.29, 388.56, 0.000, 0.000, 0.000, 21:11:03.799, 1582472463799
131, 1176.42, 1087.69, 1021.93, 940.00, 0.000, 0.000, 0.000, 21:11:03.830, 1582472463830
132, 1116.65, 904.00, 975.86, 542.94, 0.000, 0.000, 0.000, 21:11:03.830, 1582472463830
133, 1092.26, 852.72, 902.67, 362.00, 0.000, 0.000, 0.000, 21:11:03.830, 1582472463830
134, 1127.83, 872.06, 952.02, 370.89, 0.000, 0.000, 0.000, 21:11:03.830, 1582472463830
135, 1185.17, 1076.01, 1051.81, 941.95, 0.000, 0.000, 0.000, 21:11:03.831, 1582472463831
136, 1110.95, 907.87, 953.58, 552.14, 0.000, 0.000, 0.000, 21:11:03.831, 1582472463831
137, 1110.88, 845.88, 959.63, 375.79, 0.000, 0.000, 0.000, 21:11:03.843, 1582472463843
138, 1070.35, 828.29, 903.05, 335.79, 0.000, 0.000, 0.000, 21:11:03.843, 1582472463843
139, 1159.69, 1061.42, 1004.92, 920.65, 0.000, 0.000, 0.000, 21:11:03.859, 1582472463859
140, 1133.37, 913.89, 975.56, 554.13, 0.000, 0.000, 0.000, 21:11:03.859, 1582472463859
141, 1129.50, 867.05, 970.78, 388.65, 0.000, 0.000, 0.000, 21:11:03.859, 1582472463859
142, 1084.13, 840.83, 910.64, 345.26, 0.000, 0.000, 0.000, 21:11:03.859, 1582472463859
143, 1133.15, 1043.74, 1004.98, 904.40, 0.000, 0.000, 0.000, 21:11:03.873, 1582472463873
144, 1138.68, 913.19, 992.02, 553.10, 0.000, 0.000, 0.000, 21:11:03.873, 1582472463873
145, 1073.27, 818.74, 908.30, 343.88, 0.000, 0.000, 0.000, 21:11:03.889, 1582472463889
146, 1073.37, 822.84, 899.89, 331.20, 0.000, 0.000, 0.000, 21:11:03.889, 1582472463889
147, 1179.22, 1069.36, 1031.65, 928.48, 0.000, 0.000, 0.000, 21:11:03.889, 1582472463889
148, 1103.56, 893.48, 964.51, 540.46, 0.000, 0.000, 0.000, 21:11:03.889, 1582472463889
149, 1085.96, 828.36, 914.47, 359.09, 0.000, 0.000, 0.000, 21:11:03.903, 1582472463903
150, 1078.82, 817.73, 907.21, 329.73, 0.000, 0.000, 0.000, 21:11:03.903, 1582472463903
151, 1109.69, 1019.20, 972.87, 883.24, 0.000, 0.000, 0.000, 21:11:03.919, 1582472463919
152, 1079.89, 864.79, 941.47, 522.12, 0.000, 0.000, 0.000, 21:11:03.919, 1582472463919
153, 1043.75, 797.10, 891.21, 328.49, 0.000, 0.000, 0.000, 21:11:03.919, 1582472463919
154, 1062.21, 811.51, 888.61, 319.86, 0.000, 0.000, 0.000, 21:11:03.919, 1582472463919
155, 1122.83, 1036.04, 975.81, 910.17, 0.000, 0.000, 0.000, 21:11:03.933, 1582472463933
156, 1095.19, 879.97, 938.71, 531.18, 0.000, 0.000, 0.000, 21:11:03.933, 1582472463933
157, 1074.35, 815.35, 909.63, 337.98, 0.000, 0.000, 0.000, 21:11:03.949, 1582472463949
158, 1055.35, 798.51, 892.59, 303.00, 0.000, 0.000, 0.000, 21:11:03.949, 1582472463949
159, 1092.90, 1010.40, 966.93, 896.26, 0.000, 0.000, 0.000, 21:11:03.949, 1582472463949
160, 1056.35, 855.10, 895.35, 495.24, 0.000, 0.000, 0.000, 21:11:03.949, 1582472463949
161, 1044.28, 792.35, 877.76, 310.03, 0.000, 0.000, 0.000, 21:11:03.963, 1582472463963
162, 1071.15, 812.99, 901.36, 307.36, 0.000, 0.000, 0.000, 21:11:03.963, 1582472463963
163, 1122.19, 1035.89, 975.85, 905.16, 0.000, 0.000, 0.000, 21:11:03.979, 1582472463979
164, 1092.40, 877.39, 936.76, 517.49, 0.000, 0.000, 0.000, 21:11:03.979, 1582472463979
165, 1092.82, 830.65, 928.38, 347.60, 0.000, 0.000, 0.000, 21:11:03.979, 1582472463979
166, 1090.01, 828.30, 896.69, 318.90, 0.000, 0.000, 0.000, 21:11:03.979, 1582472463979
167, 1159.43, 1064.14, 1004.42, 934.31, 0.000, 0.000, 0.000, 21:11:03.993, 1582472463993
168, 1082.87, 881.81, 932.47, 530.17, 0.000, 0.000, 0.000, 21:11:03.993, 1582472463993
169, 1094.32, 810.78, 945.28, 349.47, 0.000, 0.000, 0.000, 21:11:04.009, 1582472464009
170, 1057.52, 794.75, 878.14, 298.54, 0.000, 0.000, 0.000, 21:11:04.009, 1582472464009
171, 1137.45, 1046.92, 1000.89, 920.32, 0.000, 0.000, 0.000, 21:11:04.009, 1582472464009
172, 1071.51, 876.36, 913.02, 545.35, 0.000, 0.000, 0.000, 21:11:04.009, 1582472464009
173, 1068.30, 796.77, 901.65, 323.60, 0.000, 0.000, 0.000, 21:11:04.023, 1582472464023
174, 1068.22, 793.78, 899.21, 293.39, 0.000, 0.000, 0.000, 21:11:04.023, 1582472464023
175, 1127.40, 1037.49, 984.49, 914.12, 0.000, 0.000, 0.000, 21:11:04.039, 1582472464039
176, 1099.04, 880.45, 949.39, 528.17, 0.000, 0.000, 0.000, 21:11:04.039, 1582472464039
177, 1063.50, 801.00, 897.36, 325.51, 0.000, 0.000, 0.000, 21:11:04.040, 1582472464040
178, 1048.16, 778.55, 884.20, 279.29, 0.000, 0.000, 0.000, 21:11:04.040, 1582472464040
179, 1123.17, 1027.09, 987.51, 919.18, 0.000, 0.000, 0.000, 21:11:04.053, 1582472464053
180, 1109.19, 884.13, 956.82, 541.19, 0.000, 0.000, 0.000, 21:11:04.053, 1582472464053
181, 1058.61, 785.61, 892.09, 309.16, 0.000, 0.000, 0.000, 21:11:04.069, 1582472464069
182, 1021.38, 758.96, 849.54, 257.68, 0.000, 0.000, 0.000, 21:11:04.069, 1582472464069
183, 1097.53, 1008.30, 961.80, 894.28, 0.000, 0.000, 0.000, 21:11:04.069, 1582472464069
184, 1094.70, 872.84, 932.72, 526.96, 0.000, 0.000, 0.000, 21:11:04.069, 1582472464069
185, 1062.50, 798.25, 882.95, 308.90, 0.000, 0.000, 0.000, 21:11:04.083, 1582472464083
186, 1029.59, 762.05, 865.08, 252.99, 0.000, 0.000, 0.000, 21:11:04.083, 1582472464083
187, 1088.11, 999.60, 958.47, 898.90, 0.000, 0.000, 0.000, 21:11:04.099, 1582472464099
188, 1094.05, 858.48, 938.40, 524.25, 0.000, 0.000, 0.000, 21:11:04.099, 1582472464099
189, 1025.19, 755.36, 860.75, 285.84, 0.000, 0.000, 0.000, 21:11:04.100, 1582472464100
190, 1001.46, 735.07, 834.21, 238.10, 0.000, 0.000, 0.000, 21:11:04.100, 1582472464100
191, 1081.09, 998.22, 944.96, 898.91, 0.000, 0.000, 0.000, 21:11:04.113, 1582472464113
192, 1087.11, 846.89, 922.85, 517.65, 0.000, 0.000, 0.000, 21:11:04.113, 1582472464113
193, 1046.43, 755.21, 893.39, 285.71, 0.000, 0.000, 0.000, 21:11:04.129, 1582472464129
194, 1039.90, 744.71, 859.08, 242.60, 0.000, 0.000, 0.000, 21:11:04.129, 1582472464129
195, 1084.11, 985.71, 956.36, 896.01, 0.000, 0.000, 0.000, 21:11:04.130, 1582472464130
196, 983.35, 776.93, 830.67, 458.97, 0.000, 0.000, 0.000, 21:11:04.130, 1582472464130
197, 970.62, 696.67, 805.78, 240.19, 0.000, 0.000, 0.000, 21:11:04.143, 1582472464143
198, 969.31, 687.07, 800.14, 198.11, 0.000, 0.000, 0.000, 21:11:04.143, 1582472464143
199, 1058.24, 967.11, 927.07, 900.75, 0.000, 0.000, 0.000, 21:11:04.159, 1582472464159
200, 1035.89, 805.78, 888.91, 494.49, 0.000, 0.000, 0.000, 21:11:04.159, 1582472464159
0, 998.03, 713.71, 839.65, 254.92, 0.000, 0.000, 0.000, 21:11:04.159, 1582472464159
1, 999.49, 709.16, 835.64, 214.50, 0.000, 0.000, 0.000, 21:11:04.174, 1582472464174
2, 1087.33, 998.01, 962.10, 931.91, 0.000, 0.000, 0.000, 21:11:04.174, 1582472464174
3, 1033.25, 805.60, 893.67, 486.30, 0.000, 0.000, 0.000, 21:11:04.174, 1582472464174
4, 984.56, 699.20, 831.32, 242.42, 0.000, 0.000, 0.000, 21:11:04.174, 1582472464174
5, 1009.55, 715.69, 857.67, 216.68, 0.000, 0.000, 0.000, 21:11:04.188, 1582472464188
6, 1107.10, 1016.66, 1006.71, 959.45, 0.000, 0.000, 0.000, 21:11:04.188, 1582472464188
7, 1073.76, 847.33, 933.05, 528.75, 0.000, 0.000, 0.000, 21:11:04.204, 1582472464204
8, 1013.82, 727.54, 885.62, 262.23, 0.000, 0.000, 0.000, 21:11:04.204, 1582472464204
9, 1068.55, 761.97, 914.87, 252.41, 0.000, 0.000, 0.000, 21:11:04.204, 1582472464204
10, 1159.34, 1068.63, 1052.61, 1009.00, 0.000, 0.000, 0.000, 21:11:04.204, 1582472464204
11, 1105.10, 873.31, 986.81, 565.28, 0.000, 0.000, 0.000, 21:11:04.218, 1582472464218
12, 1003.53, 717.69, 872.45, 250.80, 0.000, 0.000, 0.000, 21:11:04.218, 1582472464218
13, 1023.74, 720.38, 909.16, 222.37, 0.000, 0.000, 0.000, 21:11:04.234, 1582472464234
14, 1150.81, 1060.41, 1069.03, 1024.92, 0.000, 0.000, 0.000, 21:11:04.234, 1582472464234
15, 1065.62, 837.89, 966.84, 553.96, 0.000, 0.000, 0.000, 21:11:04.235, 1582472464235
16, 1010.34, 717.19, 901.69, 265.63, 0.000, 0.000, 0.000, 21:11:04.235, 1582472464235
17, 987.49, 671.70, 881.09, 181.96, 0.000, 0.000, 0.000, 21:11:04.248, 1582472464248
18, 1084.25, 1004.51, 1021.59, 1000.46, 0.000, 0.000, 0.000, 21:11:04.248, 1582472464248
19, 1085.25, 814.42, 1011.60, 561.65, 0.000, 0.000, 0.000, 21:11:04.264, 1582472464264
20, 1101.53, 738.67, 982.75, 289.82, 0.000, 0.000, 0.000, 21:11:04.264, 1582472464264
21, 1058.41, 704.00, 904.61, 182.67, 0.000, 0.000, 0.000, 21:11:04.264, 1582472464264
22, 1004.58, 936.52, 991.60, 965.70, 0.000, 0.000, 0.000, 21:11:04.264, 1582472464264
23, 1017.97, 761.23, 993.36, 537.22, 0.000, 0.000, 0.000, 21:11:04.278, 1582472464278
24, 964.27, 675.50, 874.73, 212.49, 0.000, 0.000, 0.000, 21:11:04.278, 1582472464278
25, 896.10, 615.23, 795.68, 79.34, 0.000, 0.000, 0.000, 21:11:04.310, 1582472464310
26, 1019.09, 999.63, 987.36, 1004.85, 0.000, 0.000, 0.000, 21:11:04.310, 1582472464310
27, 1003.44, 816.39, 962.02, 545.44, 0.000, 0.000, 0.000, 21:11:04.310, 1582472464310
28, 954.69, 676.20, 886.94, 209.25, 0.000, 0.000, 0.000, 21:11:04.310, 1582472464310
29, 934.98, 627.97, 853.33, 79.22, 0.000, 0.000, 0.000, 21:11:04.311, 1582472464311
30, 1041.63, 1025.66, 1010.17, 1039.34, 0.000, 0.000, 0.000, 21:11:04.311, 1582472464311
31, 1025.39, 840.42, 981.34, 577.97, 0.000, 0.000, 0.000, 21:11:04.324, 1582472464324
32, 992.98, 703.28, 927.73, 215.71, 0.000, 0.000, 0.000, 21:11:04.324, 1582472464324
33, 999.73, 659.05, 918.73, 75.46, 0.000, 0.000, 0.000, 21:11:04.324, 1582472464324
34, 1026.03, 1030.02, 1017.86, 1054.57, 0.000, 0.000, 0.000, 21:11:04.324, 1582472464324
35, 1070.83, 860.51, 1055.62, 617.83, 0.000, 0.000, 0.000, 21:11:04.338, 1582472464338
36, 965.69, 667.91, 900.08, 180.65, 0.000, 0.000, 0.000, 21:11:04.338, 1582472464338
37, 834.81, 553.61, 754.42, -47.20, 0.000, 0.000, 0.000, 21:11:04.354, 1582472464354
38, 980.29, 993.58, 1004.05, 64.47, 0.000, 0.000, 0.000, 21:11:04.354, 1582472464354
39, 924.46, 774.73, 924.66, -429.90, 0.000, 0.000, 0.000, 21:11:04.354, 1582472464354
40, 842.75, 585.76, 809.17, -872.93, 0.000, 0.000, 0.000, 21:11:04.354, 1582472464354
41, 816.26, 515.72, 771.68, -1067.55, 0.000, 0.000, 0.000, 21:11:04.384, 1582472464384
42, 965.75, 995.37, 983.26, -906.87, 0.000, 0.000, 0.000, 21:11:04.384, 1582472464384
43, 955.20, 795.16, 957.66, -1392.10, 0.000, 0.000, 0.000, 21:11:04.385, 1582472464385
44, 896.52, 614.40, 866.51, -1835.81, 0.000, 0.000, 0.000, 21:11:04.385, 1582472464385
45, 857.88, 528.22, 805.11, -2049.95, 0.000, 0.000, 0.000, 21:11:04.386, 1582472464386
46, 997.46, 1015.72, 1018.23, -1860.36, 0.000, 0.000, 0.000, 21:11:04.386, 1582472464386
47, 994.99, 823.36, 991.56, -2321.47, 0.000, 0.000, 0.000, 21:11:04.398, 1582472464398
48, 989.08, 663.03, 939.65, -2781.74, 0.000, 0.000, 0.000, 21:11:04.398, 1582472464398
49, 884.64, 536.96, 835.82, -3034.85, 0.000, 0.000, 0.000, 21:11:04.414, 1582472464414
50, 922.60, 972.99, 937.81, -2865.48, 0.000, 0.000, 0.000, 21:11:04.414, 1582472464414
51, 958.11, 779.66, 981.62, -3320.94, 0.000, 0.000, 0.000, 21:11:04.414, 1582472464414
52, 911.80, 582.08, 906.38, -3807.83, 0.000, 0.000, 0.000, 21:11:04.414, 1582472464414
53, 773.86, 433.67, 694.29, -4119.25, 0.000, 0.000, 0.000, 21:11:04.428, 1582472464428
54, 927.48, 964.36, 932.79, -3842.47, 0.000, 0.000, 0.000, 21:11:04.428, 1582472464428
55, 926.67, 752.39, 921.66, -4324.68, 0.000, 0.000, 0.000, 21:11:04.444, 1582472464444
56, 850.95, 521.51, 810.00, -4846.36, 0.000, 0.000, 0.000, 21:11:04.444, 1582472464444
57, 793.47, 393.32, 732.75, -5118.15, 0.000, 0.000, 0.000, 21:11:04.444, 1582472464444
58, 956.58, 952.44, 957.90, -4809.47, 0.000, 0.000, 0.000, 21:11:04.444, 1582472464444
59, 954.47, 737.72, 933.58, -5287.68, 0.000, 0.000, 0.000, 21:11:04.458, 1582472464458
60, 880.11, 504.04, 820.48, -5826.06, 0.000, 0.000, 0.000, 21:11:04.458, 1582472464458
61, 841.15, 400.25, 756.91, -6090.06, 0.000, 0.000, 0.000, 21:11:04.474, 1582472464474
62, 992.26, 953.77, 964.54, -5770.34, 0.000, 0.000, 0.000, 21:11:04.474, 1582472464474
63, 952.12, 693.66, 922.40, -6273.56, 0.000, 0.000, 0.000, 21:11:04.474, 1582472464474
64, 792.19, 415.05, 728.48, -6864.37, 0.000, 0.000, 0.000, 21:11:04.474, 1582472464474
65, 743.06, 280.43, 642.99, -7149.35, 0.000, 0.000, 0.000, 21:11:04.488, 1582472464488
66, 949.45, 876.49, 922.98, -6777.49, 0.000, 0.000, 0.000, 21:11:04.488, 1582472464488
67, 876.04, 595.86, 839.24, -7301.01, 0.000, 0.000, 0.000, 21:11:04.504, 1582472464504
68, 706.55, 347.46, 652.51, -7772.16, 0.000, 0.000, 0.000, 21:11:04.504, 1582472464504
69, 767.16, 345.83, 710.51, -7847.86, 0.000, 0.000, 0.000, 21:11:04.504, 1582472464504
70, 817.43, 857.71, 813.64, -7575.55, 0.000, 0.000, 0.000, 21:11:04.504, 1582472464504
71, 807.90, 596.88, 788.00, -8081.55, 0.000, 0.000, 0.000, 21:11:04.518, 1582472464518
72, 692.15, 279.05, 629.87, -8722.72, 0.000, 0.000, 0.000, 21:11:04.518, 1582472464518
73, 609.72, 93.51, 527.47, -9082.62, 0.000, 0.000, 0.000, 21:11:04.534, 1582472464534
74, 797.79, 742.94, 788.48, -8660.97, 0.000, 0.000, 0.000, 21:11:04.534, 1582472464534
75, 800.76, 513.38, 773.53, -9121.17, 0.000, 0.000, 0.000, 21:11:04.534, 1582472464534
76, 686.76, 212.49, 624.44, -9754.34, 0.000, 0.000, 0.000, 21:11:04.534, 1582472464534
77, 624.41, 63.86, 528.88, -10088.98, 0.000, 0.000, 0.000, 21:11:04.548, 1582472464548
78, 790.88, 718.09, 726.86, -9654.59, 0.000, 0.000, 0.000, 21:11:04.548, 1582472464548
79, 794.37, 470.87, 708.68, -10134.57, 0.000, 0.000, 0.000, 21:11:04.564, 1582472464564
80, 700.21, 171.44, 572.72, -10758.00, 0.000, 0.000, 0.000, 21:11:04.564, 1582472464564
81, 657.85, 26.24, 486.48, -11096.42, 0.000, 0.000, 0.000, 21:11:04.564, 1582472464564
82, 805.42, 688.24, 732.47, -10659.43, 0.000, 0.000, 0.000, 21:11:04.564, 1582472464564
83, 784.09, 443.55, 711.19, -11141.55, 0.000, 0.000, 0.000, 21:11:04.578, 1582472464578
84, 676.47, 136.79, 567.62, -11782.83, 0.000, 0.000, 0.000, 21:11:04.578, 1582472464578
85, 661.78, 13.73, 537.44, -12115.77, 0.000, 0.000, 0.000, 21:11:04.594, 1582472464594
86, 771.77, 680.38, 678.56, -11675.66, 0.000, 0.000, 0.000, 21:11:04.594, 1582472464594
87, 796.07, 466.70, 682.87, -12128.78, 0.000, 0.000, 0.000, 21:11:04.594, 1582472464594
88, 721.01, 180.98, 580.54, -12757.78, 0.000, 0.000, 0.000, 21:11:04.594, 1582472464594
89, 585.46, -37.60, 424.92, -13166.62, 0.000, 0.000, 0.000, 21:11:04.608, 1582472464608
90, 795.05, 692.00, 727.46, -12652.53, 0.000, 0.000, 0.000, 21:11:04.608, 1582472464608
91, 798.00, 461.59, 690.40, -13117.55, 0.000, 0.000, 0.000, 21:11:04.624, 1582472464624
92, 677.02, 142.54, 538.33, -13778.35, 0.000, 0.000, 0.000, 21:11:04.624, 1582472464624
93, 600.46, -38.80, 436.14, -14163.02, 0.000, 0.000, 0.000, 21:11:04.624, 1582472464624
94, 810.12, 709.26, 726.47, -13633.36, 0.000, 0.000, 0.000, 21:11:04.624, 1582472464624
95, 802.04, 466.87, 703.32, -14098.87, 0.000, 0.000, 0.000, 21:11:04.638, 1582472464638
96, 684.93, 134.72, 549.29, -14771.42, 0.000, 0.000, 0.000, 21:11:04.638, 1582472464638
97, 622.98, -45.11, 445.00, -15166.22, 0.000, 0.000, 0.000, 21:11:04.654, 1582472464654
98, 767.67, 651.51, 673.51, -14677.64, 0.000, 0.000, 0.000, 21:11:04.654, 1582472464654
99, 557.03, 248.77, 468.77, -15269.24, 0.000, 0.000, 0.000, 21:11:04.655, 1582472464655
100, 340.71, -173.13, 200.68, -16033.59, 0.000, 0.000, 0.000, 21:11:04.655, 1582472464655
101, 169.26, -442.32, 6.47, -16516.43, 0.000, 0.000, 0.000, 21:11:04.668, 1582472464668
102, 263.57, 171.59, 134.86, -16108.88, 0.000, 0.000, 0.000, 21:11:04.668, 1582472464668
103, -186.15, -424.90, -296.48, -16912.16, 0.000, 0.000, 0.000, 21:11:04.684, 1582472464684
104, -498.96, -865.88, -579.20, -17565.46, 0.000, 0.000, 0.000, 21:11:04.684, 1582472464684
105, -670.36, -1101.44, -773.16, -17918.77, 0.000, 0.000, 0.000, 21:11:04.684, 1582472464684
106, -1087.92, -952.71, -1149.55, -16995.06, 0.000, 0.000, 0.000, 21:11:04.684, 1582472464684
107, -1939.30, -1028.37, -1984.30, -17204.44, 0.000, 0.000, 0.000, 21:11:04.698, 1582472464698
108, -2733.40, -1039.16, -2802.78, -17504.86, 0.000, 0.000, 0.000, 21:11:04.698, 1582472464698
109, -3343.24, -1728.55, -3450.83, -18339.94, 0.000, 0.000, 0.000, 21:11:04.714, 1582472464714
110, -3690.93, -1484.53, -3736.69, -18297.01, 0.000, 0.000, 0.000, 21:11:04.714, 1582472464714
111, -4473.99, -1545.68, -4548.58, -18630.82, 0.000, 0.000, 0.000, 21:11:04.714, 1582472464714
112, -5435.65, -1708.18, -4557.16, -19123.08, 0.000, 0.000, 0.000, 21:11:04.714, 1582472464714
113, -6270.20, -2582.54, -5385.97, -19166.53, 0.000, 0.000, 0.000, 21:11:04.728, 1582472464728
114, -6697.32, -2415.19, -5768.25, -18192.94, 0.000, 0.000, 0.000, 21:11:04.728, 1582472464728
115, -7596.64, -2450.70, -6641.57, -18371.27, 0.000, 0.000, 0.000, 21:11:04.744, 1582472464744
116, -7661.76, -2649.18, -6685.22, -18742.26, 0.000, 0.000, 0.000, 21:11:04.744, 1582472464744
117, -8268.16, -3295.38, -7341.37, -19390.53, 0.000, 0.000, 0.000, 21:11:04.744, 1582472464744
118, -8464.90, -3839.07, -7490.85, -19251.29, 0.000, 0.000, 0.000, 21:11:04.744, 1582472464744
119, -8823.50, -4719.02, -7843.10, -19407.00, 0.000, 0.000, 0.000, 21:11:04.758, 1582472464758
120, -8823.50, -4901.91, -7843.10, -20331.36, 0.000, 0.000, 0.000, 21:11:04.758, 1582472464758
121, -8823.50, -4901.91, -7843.10, -20389.37, 0.000, 0.000, 0.000, 21:11:04.774, 1582472464774
122, -8823.50, -4386.29, -7843.10, -19756.79, 0.000, 0.000, 0.000, 21:11:04.774, 1582472464774
123, -8715.25, -4264.48, -7718.26, -19878.43, 0.000, 0.000, 0.000, 21:11:04.774, 1582472464774
124, -8122.72, -3938.95, -7142.13, -18952.10, 0.000, 0.000, 0.000, 21:11:04.774, 1582472464774
125, -8508.52, -4572.69, -7535.33, -19190.13, 0.000, 0.000, 0.000, 21:11:04.788, 1582472464788
126, -8823.50, -4901.92, -7843.10, -19607.80, 0.000, 0.000, 0.000, 21:11:04.788, 1582472464788
127, -8823.50, -4901.92, -7843.10, -19607.80, 0.000, 0.000, 0.000, 21:11:04.804, 1582472464804
128, -8823.50, -4901.92, -7843.10, -19607.80, 0.000, 0.000, 0.000, 21:11:04.804, 1582472464804
129, -8823.50, -4901.92, -7843.10, -19607.80, 0.000, 0.000, 0.000, 21:11:04.804, 1582472464804
130, -8823.50, -4901.92, -7843.10, -19607.80, 0.000, 0.000, 0.000, 21:11:04.804, 1582472464804
131, -8823.50, -4901.92, -7843.10, -19607.80, 0.000, 0.000, 0.000, 21:11:04.818, 1582472464818
132, -8823.50, -4901.92, -7843.10, -19607.80, 0.000, 0.000, 0.000, 21:11:04.818, 1582472464818
133, -8823.50, -4901.92, -7843.10, -19607.80, 0.000, 0.000, 0.000, 21:11:04.834, 1582472464834
134, -8823.50, -4901.92, -7843.10, -19607.80, 0.000, 0.000, 0.000, 21:11:04.834, 1582472464834
135, -8823.50, -4901.92, -7843.10, -19607.80, 0.000, 0.000, 0.000, 21:11:04.834, 1582472464834
136, -8823.50, -4901.92, -7843.10, -19607.80, 0.000, 0.000, 0.000, 21:11:04.834, 1582472464834
137, -8823.50, -4901.92, -7843.10, -19607.80, 0.000, 0.000, 0.000, 21:11:04.865, 1582472464865
138, -8823.50, -4901.92, -7843.10, -19607.80, 0.000, 0.000, 0.000, 21:11:04.865, 1582472464865
139, -8823.50, -4901.92, -7843.10, -19607.80, 0.000, 0.000, 0.000, 21:11:04.865, 1582472464865
140, -8823.50, -4901.92, -7843.10, -19607.80, 0.000, 0.000, 0.000, 21:11:04.865, 1582472464865
141, -8823.50, -4901.92, -7843.10, -19607.80, 0.000, 0.000, 0.000, 21:11:04.866, 1582472464866
142, -8823.50, -4901.92, -7843.10, -19607.80, 0.000, 0.000, 0.000, 21:11:04.866, 1582472464866
143, -8823.50, -4901.92, -7843.10, -19607.80, 0.000, 0.000, 0.000, 21:11:04.878, 1582472464878
144, -8823.50, -4901.92, -7843.10, -19607.80, 0.000, 0.000, 0.000, 21:11:04.878, 1582472464878
145, -8823.50, -4901.92, -7843.10, -19607.80, 0.000, 0.000, 0.000, 21:11:04.910, 1582472464910
146, -8823.50, -4901.92, -7843.10, -19607.80, 0.000, 0.000, 0.000, 21:11:04.910, 1582472464910
147, -8823.50, -4901.92, -7843.10, -19607.80, 0.000, 0.000, 0.000, 21:11:04.910, 1582472464910
148, -8823.50, -4901.92, -7843.10, -19607.80, 0.000, 0.000, 0.000, 21:11:04.910, 1582472464910
149, -8823.50, -4901.92, -7843.10, -19607.80, 0.000, 0.000, 0.000, 21:11:04.911, 1582472464911
150, -8823.50, -4901.92, -7843.10, -19607.80, 0.000, 0.000, 0.000, 21:11:04.911, 1582472464911
151, -8823.50, -4901.92, -7843.10, -19607.80, 0.000, 0.000, 0.000, 21:11:04.924, 1582472464924
152, -8823.50, -4901.92, -7843.10, -19607.80, 0.000, 0.000, 0.000, 21:11:04.924, 1582472464924
153, -8823.50, -4901.92, -7843.10, -19607.80, 0.000, 0.000, 0.000, 21:11:04.924, 1582472464924
154, -8823.50, -4901.92, -7843.10, -19607.80, 0.000, 0.000, 0.000, 21:11:04.924, 1582472464924
155, -8823.50, -4901.92, -7843.10, -19607.80, 0.000, 0.000, 0.000, 21:11:04.938, 1582472464938
156, -8823.50, -4901.92, -7843.10, -19607.80, 0.000, 0.000, 0.000, 21:11:04.938, 1582472464938
157, -8823.50, -4901.92, -7843.10, -19607.80, 0.000, 0.000, 0.000, 21:11:04.954, 1582472464954
158, -8823.50, -4901.92, -7843.10, -19607.80, 0.000, 0.000, 0.000, 21:11:04.954, 1582472464954
159, -8823.50, -4901.92, -7843.10, -19607.80, 0.000, 0.000, 0.000, 21:11:04.969, 1582472464969
160, -8823.50, -4901.92, -7843.10, -19607.80, 0.000, 0.000, 0.000, 21:11:04.969, 1582472464969
161, -8823.50, -4540.01, -7843.10, -19063.99, 0.000, 0.000, 0.000, 21:11:04.969, 1582472464969
162, -8823.50, -4901.92, -7843.10, -19607.80, 0.000, 0.000, 0.000, 21:11:04.969, 1582472464969
163, -8823.50, -4901.92, -7843.10, -19607.80, 0.000, 0.000, 0.000, 21:11:04.984, 1582472464984
164, -8823.50, -4901.92, -7843.10, -19607.80, 0.000, 0.000, 0.000, 21:11:04.984, 1582472464984
165, -8823.50, -4901.92, -7843.10, -19607.80, 0.000, 0.000, 0.000, 21:11:04.984, 1582472464984
166, -8823.50, -4901.92, -7843.10, -19607.80, 0.000, 0.000, 0.000, 21:11:04.984, 1582472464984
167, -8823.50, -4901.92, -7843.10, -19607.80, 0.000, 0.000, 0.000, 21:11:04.998, 1582472464998
168, -8823.50, -4901.92, -7843.10, -19607.80, 0.000, 0.000, 0.000, 21:11:04.998, 1582472464998
169, -8823.50, -4434.70, -7843.10, -18861.19, 0.000, 0.000, 0.000, 21:11:05.014, 1582472465014
170, -8823.50, -4901.92, -7843.10, -19603.80, 0.000, 0.000, 0.000, 21:11:05.014, 1582472465014
171, -8823.50, -4901.92, -7843.10, -19607.80, 0.000, 0.000, 0.000, 21:11:05.014, 1582472465014
172, -8823.50, -4803.38, -7843.10, -19271.00, 0.000, 0.000, 0.000, 21:11:05.014, 1582472465014
173, -8653.08, -4161.13, -7521.41, -18567.29, 0.000, 0.000, 0.000, 21:11:05.028, 1582472465028
174, -8823.50, -4873.84, -7843.10, -19466.66, 0.000, 0.000, 0.000, 21:11:05.028, 1582472465028
175, -8823.50, -4901.77, -7843.10, -19442.12, 0.000, 0.000, 0.000, 21:11:05.044, 1582472465044
176, -8823.50, -4783.96, -7823.70, -18876.86, 0.000, 0.000, 0.000, 21:11:05.044, 1582472465044
177, -8489.55, -4677.00, -7256.44, -18082.78, 0.000, 0.000, 0.000, 21:11:05.045, 1582472465045
178, -8467.87, -3912.16, -7228.04, -17339.39, 0.000, 0.000, 0.000, 21:11:05.045, 1582472465045
179, -8118.27, -3025.46, -6802.60, -16419.34, 0.000, 0.000, 0.000, 21:11:05.058, 1582472465058
180, -8105.03, -2790.18, -5871.47, -16212.27, 0.000, 0.000, 0.000, 21:11:05.058, 1582472465058
181, -7275.34, -2212.25, -5072.17, -15764.01, 0.000, 0.000, 0.000, 21:11:05.074, 1582472465074
182, -7946.82, -2820.69, -5748.01, -15994.94, 0.000, 0.000, 0.000, 21:11:05.074, 1582472465074
183, -8823.51, -3146.50, -5882.32, -16258.77, 0.000, 0.000, 0.000, 21:11:05.074, 1582472465074
184, -8138.01, -2694.78, -5857.44, -16088.10, 0.000, 0.000, 0.000, 21:11:05.074, 1582472465074
185, -7536.41, -2413.49, -5308.97, -16081.07, 0.000, 0.000, 0.000, 21:11:05.088, 1582472465088
186, -7743.87, -2668.98, -5733.76, -16922.44, 0.000, 0.000, 0.000, 21:11:05.088, 1582472465088
187, -7841.40, -2246.86, -5834.86, -16612.98, 0.000, 0.000, 0.000, 21:11:05.104, 1582472465104
188, -7123.19, -1454.83, -5807.05, -16176.45, 0.000, 0.000, 0.000, 21:11:05.104, 1582472465104
189, -6238.19, -1061.74, -5002.80, -15928.91, 0.000, 0.000, 0.000, 21:11:05.104, 1582472465104
190, -6468.31, -1571.24, -5398.65, -15977.46, 0.000, 0.000, 0.000, 21:11:05.104, 1582472465104
191, -6497.40, -1376.39, -5323.78, -15825.32, 0.000, 0.000, 0.000, 21:11:05.118, 1582472465118
192, -5832.40, -473.36, -4580.42, -15190.04, 0.000, 0.000, 0.000, 21:11:05.118, 1582472465118
193, -4862.69, 51.80, -4577.39, -14937.86, 0.000, 0.000, 0.000, 21:11:05.134, 1582472465134
194, -5111.34, -767.91, -4971.02, -15374.41, 0.000, 0.000, 0.000, 21:11:05.134, 1582472465134
195, -4964.33, -499.64, -4748.77, -15023.96, 0.000, 0.000, 0.000, 21:11:05.134, 1582472465134
196, -4793.33, -422.12, -4599.92, -14360.08, 0.000, 0.000, 0.000, 21:11:05.134, 1582472465134
197, -3946.92, -173.95, -3795.60, -14255.07, 0.000, 0.000, 0.000, 21:11:05.148, 1582472465148
198, -4614.50, -900.23, -4408.82, -14590.83, 0.000, 0.000, 0.000, 21:11:05.148, 1582472465148
199, -4394.45, -407.42, -4146.53, -14329.94, 0.000, 0.000, 0.000, 21:11:05.164, 1582472465164
200, -3688.93, 128.45, -3410.13, -14196.41, 0.000, 0.000, 0.000, 21:11:05.164, 1582472465164
0, -8244.31, -4637.58, -7971.27, -6538.00, 0.000, 0.000, 0.000, 21:11:05.164, 1582472465164
1, -9221.83, -5360.15, -8949.26, -6988.45, 0.000, 0.000, 0.000, 21:11:05.179, 1582472465179
2, -8619.25, -4587.30, -8302.83, -6270.18, 0.000, 0.000, 0.000, 21:11:05.179, 1582472465179
3, -8009.37, -4547.94, -7701.82, -5453.18, 0.000, 0.000, 0.000, 21:11:05.179, 1582472465179
4, -7552.59, -4277.26, -7338.22, -4771.33, 0.000, 0.000, 0.000, 21:11:05.179, 1582472465179
5, -8523.76, -4801.78, -8274.75, -5064.49, 0.000, 0.000, 0.000, 21:11:05.193, 1582472465193
6, -7808.30, -4949.50, -7452.64, -4243.93, 0.000, 0.000, 0.000, 21:11:05.193, 1582472465193
7, -7681.94, -3999.13, -6491.14, -3450.75, 0.000, 0.000, 0.000, 21:11:05.209, 1582472465209
8, -7304.02, -3812.58, -6221.81, -2857.44, 0.000, 0.000, 0.000, 21:11:05.209, 1582472465209
9, -7958.09, -4499.11, -6728.90, -3276.43, 0.000, 0.000, 0.000, 21:11:05.210, 1582472465210
10, -7749.01, -4131.89, -6466.83, -2553.33, 0.000, 0.000, 0.000, 21:11:05.210, 1582472465210
11, -7360.65, -3532.49, -6213.19, -2365.50, 0.000, 0.000, 0.000, 21:11:05.223, 1582472465223
12, -6783.87, -3305.05, -5676.27, -1598.66, 0.000, 0.000, 0.000, 21:11:05.223, 1582472465223
13, -7151.28, -3747.63, -5879.24, -1726.93, 0.000, 0.000, 0.000, 21:11:05.239, 1582472465239
14, -6887.87, -3254.72, -5613.77, -891.09, 0.000, 0.000, 0.000, 21:11:05.239, 1582472465239
15, -6837.28, -3100.45, -4697.25, -14.98, 0.000, 0.000, 0.000, 21:11:05.239, 1582472465239
16, -6598.80, -2987.14, -4533.21, 505.20, 0.000, 0.000, 0.000, 21:11:05.239, 1582472465239
17, -7174.55, -3732.68, -4956.17, 98.45, 0.000, 0.000, 0.000, 21:11:05.253, 1582472465253
18, -7004.12, -3331.06, -4774.65, 822.23, 0.000, 0.000, 0.000, 21:11:05.253, 1582472465253
19, -6023.95, -3177.19, -3871.01, 1689.10, 0.000, 0.000, 0.000, 21:11:05.269, 1582472465269
20, -6004.54, -2268.41, -2958.76, 1994.34, 0.000, 0.000, 0.000, 21:11:05.269, 1582472465269
21, -6630.82, -3148.86, -3443.40, 1510.54, 0.000, 0.000, 0.000, 21:11:05.269, 1582472465269
22, -6482.09, -2728.22, -3203.50, 2203.25, 0.000, 0.000, 0.000, 21:11:05.269, 1582472465269
23, -6331.21, -2483.66, -2230.34, 2240.31, 0.000, 0.000, 0.000, 21:11:05.283, 1582472465283
24, -5435.67, -1700.61, -1425.58, 2443.04, 0.000, 0.000, 0.000, 21:11:05.283, 1582472465283
25, -6096.57, -2511.44, -1865.11, 1969.67, 0.000, 0.000, 0.000, 21:11:05.299, 1582472465299
26, -6057.04, -2192.32, -1818.18, 2618.92, 0.000, 0.000, 0.000, 21:11:05.299, 1582472465299
27, -5928.54, -1979.04, -1795.49, 3592.07, 0.000, 0.000, 0.000, 21:11:05.300, 1582472465300
28, -5018.79, -1196.18, -994.47, 3825.55, 0.000, 0.000, 0.000, 21:11:05.300, 1582472465300
29, -5404.37, -1875.90, -1234.66, 3466.06, 0.000, 0.000, 0.000, 21:11:05.313, 1582472465313
30, -4558.99, -1686.40, -340.79, 3983.46, 0.000, 0.000, 0.000, 21:11:05.313, 1582472465313
31, -4546.74, -1525.94, 568.67, 4869.42, 0.000, 0.000, 0.000, 21:11:05.329, 1582472465329
32, -3734.19, -790.50, 1282.30, 5039.60, 0.000, 0.000, 0.000, 21:11:05.329, 1582472465329
33, -4077.99, -1460.91, 1059.35, 4686.34, 0.000, 0.000, 0.000, 21:11:05.329, 1582472465329
34, -4039.85, -1152.50, 1151.04, 5360.48, 0.000, 0.000, 0.000, 21:11:05.329, 1582472465329
35, -3133.88, -1059.95, 1943.82, 6148.55, 0.000, 0.000, 0.000, 21:11:05.343, 1582472465343
36, -2274.87, -345.14, 2738.33, 6353.91, 0.000, 0.000, 0.000, 21:11:05.343, 1582472465343
37, -2881.61, -1271.72, 2221.51, 5774.29, 0.000, 0.000, 0.000, 21:11:05.359, 1582472465359
38, -2817.13, -886.82, 2326.66, 6489.77, 0.000, 0.000, 0.000, 21:11:05.359, 1582472465359
39, -1867.70, -797.99, 3191.50, 7395.32, 0.000, 0.000, 0.000, 21:11:05.359, 1582472465359
40, -1070.22, -70.05, 3962.18, 7543.75, 0.000, 0.000, 0.000, 21:11:05.359, 1582472465359
41, -1208.86, -599.56, 3899.23, 7309.78, 0.000, 0.000, 0.000, 21:11:05.373, 1582472465373
42, -380.65, -426.28, 4721.72, 7836.91, 0.000, 0.000, 0.000, 21:11:05.373, 1582472465373
43, 439.85, -378.32, 5461.30, 8643.04, 0.000, 0.000, 0.000, 21:11:05.389, 1582472465389
44, 1173.95, 322.57, 6182.05, 8835.65, 0.000, 0.000, 0.000, 21:11:05.389, 1582472465389
45, 1043.12, -159.32, 5211.86, 8641.56, 0.000, 0.000, 0.000, 21:11:05.389, 1582472465389
46, 1823.95, -65.99, 5994.67, 9128.74, 0.000, 0.000, 0.000, 21:11:05.389, 1582472465389
47, 2617.07, 876.94, 6694.11, 9885.75, 0.000, 0.000, 0.000, 21:11:05.420, 1582472465420
48, 3414.19, 1526.80, 7424.53, 10059.96, 0.000, 0.000, 0.000, 21:11:05.420, 1582472465420
49, 2449.09, 1144.72, 6569.43, 9894.77, 0.000, 0.000, 0.000, 21:11:05.420, 1582472465420
50, 3202.21, 1351.51, 7336.73, 10400.58, 0.000, 0.000, 0.000, 21:11:05.420, 1582472465420
51, 3936.09, 2223.50, 7976.91, 11102.36, 0.000, 0.000, 0.000, 21:11:05.421, 1582472465421
52, 4703.16, 2789.40, 8679.39, 11234.99, 0.000, 0.000, 0.000, 21:11:05.421, 1582472465421
53, 3758.31, 2491.46, 7868.95, 11155.81, 0.000, 0.000, 0.000, 21:11:05.433, 1582472465433
54, 4546.75, 2624.89, 8646.23, 11630.06, 0.000, 0.000, 0.000, 21:11:05.433, 1582472465433
55, 5302.90, 3532.91, 9324.78, 12344.29, 0.000, 0.000, 0.000, 21:11:05.449, 1582472465449
56, 5949.53, 4132.52, 9898.22, 12446.05, 0.000, 0.000, 0.000, 21:11:05.449, 1582472465449
57, 5041.25, 3787.56, 9110.21, 12307.54, 0.000, 0.000, 0.000, 21:11:05.449, 1582472465449
58, 5827.94, 3901.21, 9918.37, 12816.44, 0.000, 0.000, 0.000, 21:11:05.449, 1582472465449
59, 6505.59, 4779.21, 10495.74, 13507.77, 0.000, 0.000, 0.000, 21:11:05.463, 1582472465463
60, 7250.52, 5360.98, 11206.73, 13611.63, 0.000, 0.000, 0.000, 21:11:05.463, 1582472465463
61, 6283.78, 4954.03, 10372.67, 13487.97, 0.000, 0.000, 0.000, 21:11:05.479, 1582472465479
62, 7023.06, 5168.69, 11120.81, 13978.70, 0.000, 0.000, 0.000, 21:11:05.479, 1582472465479
63, 7713.75, 6003.01, 11733.82, 14664.78, 0.000, 0.000, 0.000, 21:11:05.494, 1582472465494
64, 8493.88, 6593.57, 12436.35, 14827.62, 0.000, 0.000, 0.000, 21:11:05.494, 1582472465494
65, 8311.65, 6187.08, 12369.03, 14557.87, 0.000, 0.000, 0.000, 21:11:05.494, 1582472465494
66, 9206.39, 6418.94, 13275.69, 15127.01, 0.000, 0.000, 0.000, 21:11:05.494, 1582472465494
67, 9911.93, 7259.11, 13907.01, 15835.52, 0.000, 0.000, 0.000, 21:11:05.525, 1582472465525
68, 10674.92, 7764.00, 14586.39, 15940.63, 0.000, 0.000, 0.000, 21:11:05.525, 1582472465525
69, 10562.54, 7159.50, 13613.62, 15739.52, 0.000, 0.000, 0.000, 21:11:05.525, 1582472465525
70, 11496.44, 7290.76, 14551.74, 16308.05, 0.000, 0.000, 0.000, 21:11:05.525, 1582472465525
71, 12213.30, 8127.76, 15175.69, 16997.38, 0.000, 0.000, 0.000, 21:11:05.526, 1582472465526
72, 12910.98, 8650.65, 15837.65, 17100.74, 0.000, 0.000, 0.000, 21:11:05.526, 1582472465526
73, 12864.16, 8241.61, 14931.65, 16890.18, 0.000, 0.000, 0.000, 21:11:05.539, 1582472465539
74, 13699.03, 8322.86, 15822.95, 17454.81, 0.000, 0.000, 0.000, 21:11:05.539, 1582472465539
75, 14365.55, 9088.64, 16352.99, 18079.85, 0.000, 0.000, 0.000, 21:11:05.539, 1582472465539
76, 14976.48, 9813.79, 16892.55, 18111.63, 0.000, 0.000, 0.000, 21:11:05.539, 1582472465539
77, 14044.35, 9386.20, 16054.60, 18015.31, 0.000, 0.000, 0.000, 21:11:05.553, 1582472465553
78, 14713.44, 9493.78, 16760.33, 18424.86, 0.000, 0.000, 0.000, 21:11:05.553, 1582472465553
