%OpenBCI Raw EEG Data
%Number of channels = 4
%Sample Rate = 200.0 Hz
%First Column = SampleIndex
%Last Column = Timestamp 
%Other Columns = EEG data in microvolts followed by Accel Data (in G) interleaved with Aux Data
0, 2525.04, 3466.03, 3245.42, -1077.79, 0.000, 0.000, 0.000, 21:00:30.139, 1582471830139
1, 2864.15, 3742.62, 3607.45, -567.59, 0.000, 0.000, 0.000, 21:00:30.154, 1582471830154
2, 2893.60, 3757.65, 3622.62, -460.80, 0.000, 0.000, 0.000, 21:00:30.154, 1582471830154
3, 2990.30, 3895.27, 3777.61, -244.61, 0.000, 0.000, 0.000, 21:00:30.169, 1582471830169
4, 3003.41, 3828.28, 3762.18, -176.12, 0.000, 0.000, 0.000, 21:00:30.169, 1582471830169
5, 3014.77, 3771.69, 3722.81, -179.79, 0.000, 0.000, 0.000, 21:00:30.170, 1582471830170
6, 2891.76, 3653.74, 3596.93, -226.19, 0.000, 0.000, 0.000, 21:00:30.170, 1582471830170
7, 2953.59, 3767.07, 3685.04, -56.88, 0.000, 0.000, 0.000, 21:00:30.184, 1582471830184
8, 2953.11, 3681.45, 3648.19, -44.73, 0.000, 0.000, 0.000, 21:00:30.184, 1582471830184
9, 2889.04, 3565.42, 3576.82, -112.44, 0.000, 0.000, 0.000, 21:00:30.199, 1582471830199
10, 2829.67, 3489.27, 3463.14, -124.03, 0.000, 0.000, 0.000, 21:00:30.199, 1582471830199
11, 2851.05, 3571.78, 3530.04, -13.92, 0.000, 0.000, 0.000, 21:00:30.200, 1582471830200
12, 2850.68, 3497.02, 3488.70, 25.27, 0.000, 0.000, 0.000, 21:00:30.200, 1582471830200
13, 2790.32, 3379.09, 3408.78, -39.36, 0.000, 0.000, 0.000, 21:00:30.214, 1582471830214
14, 2774.05, 3338.65, 3357.35, -58.90, 0.000, 0.000, 0.000, 21:00:30.214, 1582471830214
15, 2788.02, 3417.08, 3415.22, 49.24, 0.000, 0.000, 0.000, 21:00:30.229, 1582471830229
16, 2746.74, 3311.93, 3346.02, 73.86, 0.000, 0.000, 0.000, 21:00:30.229, 1582471830229
17, 2712.62, 3228.38, 3273.81, 23.26, 0.000, 0.000, 0.000, 21:00:30.244, 1582471830244
18, 2665.64, 3155.00, 3204.23, -7.55, 0.000, 0.000, 0.000, 21:00:30.244, 1582471830244
19, 2679.02, 3237.41, 3228.06, 101.27, 0.000, 0.000, 0.000, 21:00:30.245, 1582471830245
20, 2634.84, 3123.65, 3186.37, 91.64, 0.000, 0.000, 0.000, 21:00:30.245, 1582471830245
21, 2572.34, 3033.40, 3059.80, 59.75, 0.000, 0.000, 0.000, 21:00:30.275, 1582471830275
22, 2550.59, 2977.27, 3022.04, -0.85, 0.000, 0.000, 0.000, 21:00:30.275, 1582471830275
23, 2565.52, 3057.01, 3088.62, 142.04, 0.000, 0.000, 0.000, 21:00:30.276, 1582471830276
24, 2566.76, 2977.46, 3063.36, 146.80, 0.000, 0.000, 0.000, 21:00:30.276, 1582471830276
25, 2502.38, 2888.03, 2949.61, 78.82, 0.000, 0.000, 0.000, 21:00:30.277, 1582471830277
26, 2466.95, 2830.31, 2895.98, 44.24, 0.000, 0.000, 0.000, 21:00:30.277, 1582471830277
27, 2473.98, 2913.65, 2913.47, 154.78, 0.000, 0.000, 0.000, 21:00:30.289, 1582471830289
28, 2463.68, 2819.54, 2923.70, 161.96, 0.000, 0.000, 0.000, 21:00:30.289, 1582471830289
29, 2387.46, 2709.39, 2786.41, 85.87, 0.000, 0.000, 0.000, 21:00:30.290, 1582471830290
30, 2342.93, 2649.64, 2734.64, 45.47, 0.000, 0.000, 0.000, 21:00:30.290, 1582471830290
31, 2412.98, 2780.21, 2815.81, 196.57, 0.000, 0.000, 0.000, 21:00:30.320, 1582471830320
32, 2354.74, 2667.07, 2732.71, 165.81, 0.000, 0.000, 0.000, 21:00:30.320, 1582471830320
33, 2320.54, 2601.30, 2665.45, 128.07, 0.000, 0.000, 0.000, 21:00:30.321, 1582471830321
34, 2268.39, 2517.71, 2621.39, 74.52, 0.000, 0.000, 0.000, 21:00:30.321, 1582471830321
35, 2299.92, 2619.79, 2676.58, 178.00, 0.000, 0.000, 0.000, 21:00:30.322, 1582471830322
36, 2278.76, 2539.11, 2630.62, 188.82, 0.000, 0.000, 0.000, 21:00:30.322, 1582471830322
37, 2243.68, 2464.40, 2559.84, 141.83, 0.000, 0.000, 0.000, 21:00:30.350, 1582471830350
38, 2178.04, 2386.05, 2482.64, 85.82, 0.000, 0.000, 0.000, 21:00:30.350, 1582471830350
39, 2193.20, 2477.40, 2531.32, 197.08, 0.000, 0.000, 0.000, 21:00:30.351, 1582471830351
40, 2192.98, 2398.15, 2529.45, 204.82, 0.000, 0.000, 0.000, 21:00:30.351, 1582471830351
41, 2118.42, 2298.94, 2394.30, 126.30, 0.000, 0.000, 0.000, 21:00:30.351, 1582471830351
42, 2113.67, 2269.33, 2371.29, 90.24, 0.000, 0.000, 0.000, 21:00:30.351, 1582471830351
43, 2139.79, 2368.75, 2440.07, 220.45, 0.000, 0.000, 0.000, 21:00:30.364, 1582471830364
44, 2095.44, 2267.21, 2370.88, 208.94, 0.000, 0.000, 0.000, 21:00:30.364, 1582471830364
45, 2074.46, 2206.26, 2303.19, 151.12, 0.000, 0.000, 0.000, 21:00:30.379, 1582471830379
46, 2071.64, 2170.28, 2294.86, 109.41, 0.000, 0.000, 0.000, 21:00:30.379, 1582471830379
47, 2049.71, 2248.57, 2328.65, 224.04, 0.000, 0.000, 0.000, 21:00:30.380, 1582471830380
48, 2024.76, 2165.15, 2276.80, 213.42, 0.000, 0.000, 0.000, 21:00:30.380, 1582471830380
49, 1965.33, 2077.68, 2179.30, 162.76, 0.000, 0.000, 0.000, 21:00:30.394, 1582471830394
50, 1961.43, 2038.91, 2152.30, 118.89, 0.000, 0.000, 0.000, 21:00:30.394, 1582471830394
51, 1985.69, 2144.99, 2221.30, 211.67, 0.000, 0.000, 0.000, 21:00:30.410, 1582471830410
52, 1950.35, 2057.52, 2166.83, 226.01, 0.000, 0.000, 0.000, 21:00:30.410, 1582471830410
53, 1883.10, 1948.44, 2077.36, 131.46, 0.000, 0.000, 0.000, 21:00:30.410, 1582471830410
54, 1880.66, 1929.44, 2057.39, 112.72, 0.000, 0.000, 0.000, 21:00:30.410, 1582471830410
55, 1920.14, 2051.24, 2123.69, 235.42, 0.000, 0.000, 0.000, 21:00:30.424, 1582471830424
56, 1865.88, 1938.97, 2056.15, 215.68, 0.000, 0.000, 0.000, 21:00:30.424, 1582471830424
57, 1871.26, 1890.87, 2022.89, 174.10, 0.000, 0.000, 0.000, 21:00:30.440, 1582471830440
58, 1798.45, 1820.75, 1946.60, 104.86, 0.000, 0.000, 0.000, 21:00:30.440, 1582471830440
59, 1817.63, 1932.64, 2000.83, 209.32, 0.000, 0.000, 0.000, 21:00:30.440, 1582471830440
60, 1820.80, 1866.30, 1984.44, 214.49, 0.000, 0.000, 0.000, 21:00:30.440, 1582471830440
61, 1793.17, 1799.38, 1913.63, 175.45, 0.000, 0.000, 0.000, 21:00:30.454, 1582471830454
62, 1754.01, 1737.92, 1871.69, 109.94, 0.000, 0.000, 0.000, 21:00:30.454, 1582471830454
63, 1796.74, 1876.67, 1951.77, 240.33, 0.000, 0.000, 0.000, 21:00:30.469, 1582471830469
64, 1763.19, 1788.91, 1896.21, 239.99, 0.000, 0.000, 0.000, 21:00:30.469, 1582471830469
65, 1735.61, 1705.44, 1868.84, 166.68, 0.000, 0.000, 0.000, 21:00:30.470, 1582471830470
66, 1681.90, 1644.60, 1772.58, 96.55, 0.000, 0.000, 0.000, 21:00:30.470, 1582471830470
67, 1706.60, 1788.68, 1832.64, 246.68, 0.000, 0.000, 0.000, 21:00:30.484, 1582471830484
68, 1731.98, 1730.33, 1823.70, 244.98, 0.000, 0.000, 0.000, 21:00:30.484, 1582471830484
69, 1662.37, 1618.67, 1760.35, 161.32, 0.000, 0.000, 0.000, 21:00:30.499, 1582471830499
70, 1678.17, 1609.22, 1759.38, 143.46, 0.000, 0.000, 0.000, 21:00:30.499, 1582471830499
71, 1683.69, 1720.79, 1800.46, 250.49, 0.000, 0.000, 0.000, 21:00:30.500, 1582471830500
72, 1655.14, 1631.99, 1762.17, 253.26, 0.000, 0.000, 0.000, 21:00:30.500, 1582471830500
73, 1629.61, 1551.54, 1702.07, 175.25, 0.000, 0.000, 0.000, 21:00:30.514, 1582471830514
74, 1584.62, 1501.76, 1619.45, 107.37, 0.000, 0.000, 0.000, 21:00:30.514, 1582471830514
75, 1638.98, 1645.93, 1740.13, 256.41, 0.000, 0.000, 0.000, 21:00:30.530, 1582471830530
76, 1595.77, 1543.24, 1681.50, 241.56, 0.000, 0.000, 0.000, 21:00:30.530, 1582471830530
77, 1561.70, 1474.63, 1596.21, 166.61, 0.000, 0.000, 0.000, 21:00:30.530, 1582471830530
78, 1551.34, 1444.30, 1556.39, 123.32, 0.000, 0.000, 0.000, 21:00:30.530, 1582471830530
79, 1581.59, 1585.78, 1655.51, 255.40, 0.000, 0.000, 0.000, 21:00:30.544, 1582471830544
80, 1583.32, 1506.84, 1660.06, 262.42, 0.000, 0.000, 0.000, 21:00:30.544, 1582471830544
81, 1510.43, 1417.48, 1535.83, 170.44, 0.000, 0.000, 0.000, 21:00:30.559, 1582471830559
82, 1518.00, 1381.35, 1526.68, 107.95, 0.000, 0.000, 0.000, 21:00:30.559, 1582471830559
83, 1538.78, 1526.41, 1603.20, 254.53, 0.000, 0.000, 0.000, 21:00:30.560, 1582471830560
84, 1526.22, 1448.62, 1565.65, 248.67, 0.000, 0.000, 0.000, 21:00:30.560, 1582471830560
85, 1482.49, 1359.33, 1504.31, 181.39, 0.000, 0.000, 0.000, 21:00:30.590, 1582471830590
86, 1477.42, 1333.20, 1464.33, 133.66, 0.000, 0.000, 0.000, 21:00:30.590, 1582471830590
87, 1504.26, 1474.28, 1541.10, 259.73, 0.000, 0.000, 0.000, 21:00:30.591, 1582471830591
88, 1513.25, 1410.60, 1539.55, 252.95, 0.000, 0.000, 0.000, 21:00:30.591, 1582471830591
89, 1491.09, 1336.86, 1492.46, 199.77, 0.000, 0.000, 0.000, 21:00:30.591, 1582471830591
90, 1418.35, 1269.81, 1369.11, 120.46, 0.000, 0.000, 0.000, 21:00:30.591, 1582471830591
91, 1466.60, 1422.45, 1505.72, 264.83, 0.000, 0.000, 0.000, 21:00:30.604, 1582471830604
92, 1451.54, 1350.52, 1461.85, 264.37, 0.000, 0.000, 0.000, 21:00:30.604, 1582471830604
93, 1421.87, 1267.41, 1389.10, 194.18, 0.000, 0.000, 0.000, 21:00:30.619, 1582471830619
94, 1415.39, 1236.31, 1363.12, 139.86, 0.000, 0.000, 0.000, 21:00:30.619, 1582471830619
95, 1422.68, 1368.45, 1436.14, 254.50, 0.000, 0.000, 0.000, 21:00:30.635, 1582471830635
96, 1434.11, 1303.62, 1445.47, 267.85, 0.000, 0.000, 0.000, 21:00:30.635, 1582471830635
97, 1370.52, 1208.84, 1328.92, 175.89, 0.000, 0.000, 0.000, 21:00:30.635, 1582471830635
98, 1396.90, 1205.95, 1336.81, 159.00, 0.000, 0.000, 0.000, 21:00:30.635, 1582471830635
99, 1407.66, 1349.83, 1420.77, 299.49, 0.000, 0.000, 0.000, 21:00:30.650, 1582471830650
100, 1411.83, 1278.26, 1393.67, 307.00, 0.000, 0.000, 0.000, 21:00:30.650, 1582471830650
101, 1393.29, 1197.39, 1348.82, 224.41, 0.000, 0.000, 0.000, 21:00:30.650, 1582471830650
102, 1340.22, 1144.59, 1268.96, 151.97, 0.000, 0.000, 0.000, 21:00:30.650, 1582471830650
103, 1398.72, 1332.42, 1364.34, 307.71, 0.000, 0.000, 0.000, 21:00:30.664, 1582471830664
104, 1374.57, 1240.61, 1348.23, 304.41, 0.000, 0.000, 0.000, 21:00:30.664, 1582471830664
105, 1317.72, 1138.33, 1261.31, 202.70, 0.000, 0.000, 0.000, 21:00:30.680, 1582471830680
106, 1291.06, 1094.86, 1199.38, 134.81, 0.000, 0.000, 0.000, 21:00:30.680, 1582471830680
107, 1327.41, 1245.08, 1333.55, 269.69, 0.000, 0.000, 0.000, 21:00:30.680, 1582471830680
108, 1333.22, 1182.22, 1300.11, 275.52, 0.000, 0.000, 0.000, 21:00:30.680, 1582471830680
109, 1280.22, 1081.01, 1204.07, 189.85, 0.000, 0.000, 0.000, 21:00:30.694, 1582471830694
110, 1272.15, 1068.58, 1166.78, 151.42, 0.000, 0.000, 0.000, 21:00:30.694, 1582471830694
111, 1329.50, 1236.22, 1314.06, 301.22, 0.000, 0.000, 0.000, 21:00:30.709, 1582471830709
112, 1341.11, 1179.65, 1309.48, 310.85, 0.000, 0.000, 0.000, 21:00:30.709, 1582471830709
113, 1249.41, 1049.08, 1161.39, 181.99, 0.000, 0.000, 0.000, 21:00:30.710, 1582471830710
114, 1239.17, 1016.57, 1141.25, 129.17, 0.000, 0.000, 0.000, 21:00:30.710, 1582471830710
115, 1323.86, 1218.09, 1294.56, 295.89, 0.000, 0.000, 0.000, 21:00:30.724, 1582471830724
116, 1298.94, 1132.57, 1222.22, 277.54, 0.000, 0.000, 0.000, 21:00:30.724, 1582471830724
117, 1271.92, 1059.48, 1185.24, 209.71, 0.000, 0.000, 0.000, 21:00:30.740, 1582471830740
118, 1249.50, 1025.63, 1110.97, 147.87, 0.000, 0.000, 0.000, 21:00:30.740, 1582471830740
119, 1322.73, 1198.55, 1283.88, 309.31, 0.000, 0.000, 0.000, 21:00:30.740, 1582471830740
120, 1265.29, 1094.39, 1191.89, 287.37, 0.000, 0.000, 0.000, 21:00:30.740, 1582471830740
121, 1223.87, 1016.75, 1110.09, 202.68, 0.000, 0.000, 0.000, 21:00:30.754, 1582471830754
122, 1236.85, 975.85, 1122.93, 146.45, 0.000, 0.000, 0.000, 21:00:30.754, 1582471830754
123, 1264.68, 1166.16, 1200.89, 298.34, 0.000, 0.000, 0.000, 21:00:30.770, 1582471830770
124, 1260.42, 1082.01, 1186.03, 313.01, 0.000, 0.000, 0.000, 21:00:30.770, 1582471830770
125, 1204.38, 974.35, 1075.21, 163.71, 0.000, 0.000, 0.000, 21:00:30.770, 1582471830770
126, 1197.94, 945.75, 1056.35, 131.36, 0.000, 0.000, 0.000, 21:00:30.770, 1582471830770
127, 1241.18, 1124.98, 1178.34, 300.21, 0.000, 0.000, 0.000, 21:00:30.784, 1582471830784
128, 1208.03, 1011.11, 1124.24, 253.63, 0.000, 0.000, 0.000, 21:00:30.784, 1582471830784
129, 1201.79, 966.53, 1065.30, 205.89, 0.000, 0.000, 0.000, 21:00:30.799, 1582471830799
130, 1177.58, 926.16, 1053.50, 147.58, 0.000, 0.000, 0.000, 21:00:30.799, 1582471830799
131, 1235.91, 1097.76, 1181.92, 289.56, 0.000, 0.000, 0.000, 21:00:30.800, 1582471830800
132, 1214.01, 1038.72, 1113.10, 301.92, 0.000, 0.000, 0.000, 21:00:30.800, 1582471830800
133, 1155.34, 919.17, 1025.90, 187.62, 0.000, 0.000, 0.000, 21:00:30.830, 1582471830830
134, 1149.04, 889.78, 1003.27, 132.79, 0.000, 0.000, 0.000, 21:00:30.830, 1582471830830
135, 1212.19, 1092.62, 1113.62, 301.61, 0.000, 0.000, 0.000, 21:00:30.831, 1582471830831
136, 1162.72, 968.22, 1083.48, 271.90, 0.000, 0.000, 0.000, 21:00:30.831, 1582471830831
137, 1178.64, 926.05, 1054.46, 207.24, 0.000, 0.000, 0.000, 21:00:30.831, 1582471830831
138, 1126.51, 862.90, 994.19, 120.66, 0.000, 0.000, 0.000, 21:00:30.831, 1582471830831
139, 1158.69, 1030.04, 1073.71, 274.95, 0.000, 0.000, 0.000, 21:00:30.844, 1582471830844
140, 1179.26, 991.86, 1073.65, 306.24, 0.000, 0.000, 0.000, 21:00:30.844, 1582471830844
141, 1149.40, 897.42, 1010.14, 205.09, 0.000, 0.000, 0.000, 21:00:30.859, 1582471830859
142, 1096.56, 837.55, 935.09, 130.33, 0.000, 0.000, 0.000, 21:00:30.859, 1582471830859
143, 1158.53, 1012.09, 1079.03, 271.48, 0.000, 0.000, 0.000, 21:00:30.860, 1582471830860
144, 1134.37, 932.68, 1021.22, 261.99, 0.000, 0.000, 0.000, 21:00:30.860, 1582471830860
145, 1128.24, 886.20, 977.82, 212.05, 0.000, 0.000, 0.000, 21:00:30.874, 1582471830874
146, 1122.49, 844.53, 959.79, 139.63, 0.000, 0.000, 0.000, 21:00:30.874, 1582471830874
147, 1132.71, 997.24, 1052.89, 274.33, 0.000, 0.000, 0.000, 21:00:30.905, 1582471830905
148, 1131.44, 925.78, 1021.40, 284.55, 0.000, 0.000, 0.000, 21:00:30.905, 1582471830905
149, 1121.21, 862.54, 979.26, 203.39, 0.000, 0.000, 0.000, 21:00:30.906, 1582471830906
150, 1084.89, 803.62, 923.77, 137.17, 0.000, 0.000, 0.000, 21:00:30.906, 1582471830906
151, 1155.30, 1009.65, 1046.79, 303.34, 0.000, 0.000, 0.000, 21:00:30.907, 1582471830907
152, 1121.05, 916.16, 995.11, 281.47, 0.000, 0.000, 0.000, 21:00:30.907, 1582471830907
153, 1070.01, 814.31, 921.76, 188.57, 0.000, 0.000, 0.000, 21:00:30.919, 1582471830919
154, 1080.62, 803.88, 902.81, 136.59, 0.000, 0.000, 0.000, 21:00:30.919, 1582471830919
155, 1104.91, 953.12, 994.07, 263.43, 0.000, 0.000, 0.000, 21:00:30.934, 1582471830934
156, 1115.63, 892.89, 1007.17, 275.99, 0.000, 0.000, 0.000, 21:00:30.934, 1582471830934
157, 1069.95, 804.94, 912.09, 180.40, 0.000, 0.000, 0.000, 21:00:30.935, 1582471830935
158, 1017.74, 740.90, 839.89, 92.57, 0.000, 0.000, 0.000, 21:00:30.935, 1582471830935
159, 1099.38, 947.97, 999.29, 276.49, 0.000, 0.000, 0.000, 21:00:30.950, 1582471830950
160, 1105.22, 885.46, 979.44, 272.71, 0.000, 0.000, 0.000, 21:00:30.950, 1582471830950
161, 1059.46, 795.76, 899.74, 180.58, 0.000, 0.000, 0.000, 21:00:30.950, 1582471830950
162, 1039.30, 759.61, 852.33, 118.35, 0.000, 0.000, 0.000, 21:00:30.950, 1582471830950
163, 1088.20, 947.50, 964.98, 273.00, 0.000, 0.000, 0.000, 21:00:30.964, 1582471830964
164, 1125.23, 896.16, 992.58, 287.57, 0.000, 0.000, 0.000, 21:00:30.964, 1582471830964
165, 1072.80, 802.35, 890.29, 181.85, 0.000, 0.000, 0.000, 21:00:30.980, 1582471830980
166, 999.25, 733.27, 811.33, 110.58, 0.000, 0.000, 0.000, 21:00:30.980, 1582471830980
167, 1068.26, 921.34, 950.07, 270.98, 0.000, 0.000, 0.000, 21:00:30.980, 1582471830980
168, 1076.40, 859.20, 949.82, 278.39, 0.000, 0.000, 0.000, 21:00:30.980, 1582471830980
169, 1070.62, 801.06, 905.59, 215.45, 0.000, 0.000, 0.000, 21:00:30.994, 1582471830994
170, 1024.25, 745.44, 824.12, 128.04, 0.000, 0.000, 0.000, 21:00:30.994, 1582471830994
171, 1084.41, 944.76, 941.81, 282.84, 0.000, 0.000, 0.000, 21:00:31.009, 1582471831009
172, 1069.25, 848.27, 936.04, 278.36, 0.000, 0.000, 0.000, 21:00:31.009, 1582471831009
173, 1028.81, 761.28, 861.33, 187.18, 0.000, 0.000, 0.000, 21:00:31.010, 1582471831010
174, 997.13, 725.80, 803.49, 118.46, 0.000, 0.000, 0.000, 21:00:31.010, 1582471831010
175, 1044.70, 900.38, 921.87, 266.69, 0.000, 0.000, 0.000, 21:00:31.024, 1582471831024
176, 1041.05, 825.20, 900.84, 267.76, 0.000, 0.000, 0.000, 21:00:31.024, 1582471831024
177, 1018.04, 749.05, 845.29, 182.39, 0.000, 0.000, 0.000, 21:00:31.039, 1582471831039
178, 998.22, 717.45, 792.46, 127.59, 0.000, 0.000, 0.000, 21:00:31.039, 1582471831039
179, 1077.86, 925.80, 935.46, 292.97, 0.000, 0.000, 0.000, 21:00:31.040, 1582471831040
180, 1043.61, 832.68, 894.83, 279.61, 0.000, 0.000, 0.000, 21:00:31.040, 1582471831040
181, 1012.17, 747.42, 843.39, 192.58, 0.000, 0.000, 0.000, 21:00:31.054, 1582471831054
182, 983.22, 693.49, 789.49, 114.46, 0.000, 0.000, 0.000, 21:00:31.054, 1582471831054
183, 1053.66, 897.93, 923.48, 281.24, 0.000, 0.000, 0.000, 21:00:31.069, 1582471831069
184, 1025.77, 809.50, 895.79, 273.22, 0.000, 0.000, 0.000, 21:00:31.069, 1582471831069
185, 980.70, 720.97, 800.56, 177.10, 0.000, 0.000, 0.000, 21:00:31.070, 1582471831070
186, 959.64, 683.75, 759.31, 103.34, 0.000, 0.000, 0.000, 21:00:31.070, 1582471831070
187, 1051.81, 889.69, 923.49, 270.86, 0.000, 0.000, 0.000, 21:00:31.084, 1582471831084
188, 1009.02, 791.21, 865.08, 248.31, 0.000, 0.000, 0.000, 21:00:31.084, 1582471831084
189, 941.64, 687.34, 767.66, 154.18, 0.000, 0.000, 0.000, 21:00:31.099, 1582471831099
190, 960.12, 687.36, 756.80, 112.33, 0.000, 0.000, 0.000, 21:00:31.099, 1582471831099
191, 1010.26, 854.37, 887.57, 259.38, 0.000, 0.000, 0.000, 21:00:31.100, 1582471831100
192, 989.91, 777.46, 848.45, 258.10, 0.000, 0.000, 0.000, 21:00:31.100, 1582471831100
193, 952.07, 694.65, 771.60, 164.58, 0.000, 0.000, 0.000, 21:00:31.114, 1582471831114
194, 946.60, 668.58, 745.43, 94.31, 0.000, 0.000, 0.000, 21:00:31.114, 1582471831114
195, 1019.69, 871.44, 876.42, 270.59, 0.000, 0.000, 0.000, 21:00:31.146, 1582471831146
196, 998.25, 783.31, 857.44, 262.46, 0.000, 0.000, 0.000, 21:00:31.146, 1582471831146
197, 1000.79, 720.00, 828.32, 192.17, 0.000, 0.000, 0.000, 21:00:31.146, 1582471831146
198, 946.43, 661.56, 734.46, 107.66, 0.000, 0.000, 0.000, 21:00:31.146, 1582471831146
199, 1040.90, 883.51, 889.46, 289.75, 0.000, 0.000, 0.000, 21:00:31.147, 1582471831147
200, 993.56, 785.42, 836.92, 276.80, 0.000, 0.000, 0.000, 21:00:31.147, 1582471831147
0, 971.33, 706.64, 777.80, 182.35, 0.000, 0.000, 0.000, 21:00:31.148, 1582471831148
1, 918.31, 652.51, 707.68, 103.47, 0.000, 0.000, 0.000, 21:00:31.159, 1582471831159
2, 1004.32, 843.27, 875.83, 270.49, 0.000, 0.000, 0.000, 21:00:31.159, 1582471831159
3, 971.69, 771.07, 820.83, 257.43, 0.000, 0.000, 0.000, 21:00:31.174, 1582471831174
4, 968.42, 701.49, 792.30, 189.11, 0.000, 0.000, 0.000, 21:00:31.174, 1582471831174
5, 912.68, 639.74, 701.32, 99.90, 0.000, 0.000, 0.000, 21:00:31.175, 1582471831175
6, 1011.44, 858.39, 877.88, 280.00, 0.000, 0.000, 0.000, 21:00:31.175, 1582471831175
7, 1010.46, 795.10, 861.57, 291.43, 0.000, 0.000, 0.000, 21:00:31.189, 1582471831189
8, 927.21, 667.73, 738.46, 168.43, 0.000, 0.000, 0.000, 21:00:31.189, 1582471831189
9, 926.63, 643.56, 720.38, 111.85, 0.000, 0.000, 0.000, 21:00:31.205, 1582471831205
10, 990.63, 837.55, 851.13, 268.25, 0.000, 0.000, 0.000, 21:00:31.205, 1582471831205
11, 1060.58, 813.51, 899.62, 295.11, 0.000, 0.000, 0.000, 21:00:31.205, 1582471831205
12, 963.62, 696.03, 786.25, 189.34, 0.000, 0.000, 0.000, 21:00:31.205, 1582471831205
13, 915.78, 644.99, 706.35, 110.25, 0.000, 0.000, 0.000, 21:00:31.219, 1582471831219
14, 990.41, 834.25, 858.25, 274.46, 0.000, 0.000, 0.000, 21:00:31.219, 1582471831219
15, 1025.29, 801.14, 864.80, 296.83, 0.000, 0.000, 0.000, 21:00:31.234, 1582471831234
16, 924.21, 670.41, 748.95, 177.00, 0.000, 0.000, 0.000, 21:00:31.234, 1582471831234
17, 916.19, 630.24, 714.09, 107.21, 0.000, 0.000, 0.000, 21:00:31.235, 1582471831235
18, 991.37, 840.91, 864.72, 290.44, 0.000, 0.000, 0.000, 21:00:31.235, 1582471831235
19, 995.97, 776.59, 837.39, 282.08, 0.000, 0.000, 0.000, 21:00:31.249, 1582471831249
20, 991.69, 704.53, 803.61, 212.33, 0.000, 0.000, 0.000, 21:00:31.249, 1582471831249
21, 917.95, 636.22, 724.60, 120.28, 0.000, 0.000, 0.000, 21:00:31.265, 1582471831265
22, 981.73, 828.08, 851.26, 274.89, 0.000, 0.000, 0.000, 21:00:31.265, 1582471831265
23, 988.65, 762.15, 842.79, 281.68, 0.000, 0.000, 0.000, 21:00:31.265, 1582471831265
24, 922.22, 664.51, 723.49, 170.88, 0.000, 0.000, 0.000, 21:00:31.265, 1582471831265
25, 901.59, 621.59, 698.80, 108.34, 0.000, 0.000, 0.000, 21:00:31.279, 1582471831279
26, 1000.93, 839.11, 858.22, 282.35, 0.000, 0.000, 0.000, 21:00:31.279, 1582471831279
27, 1018.14, 796.74, 870.90, 309.06, 0.000, 0.000, 0.000, 21:00:31.294, 1582471831294
28, 924.96, 671.36, 734.68, 177.26, 0.000, 0.000, 0.000, 21:00:31.294, 1582471831294
29, 912.09, 634.07, 702.26, 113.55, 0.000, 0.000, 0.000, 21:00:31.295, 1582471831295
30, 991.56, 836.96, 855.58, 289.46, 0.000, 0.000, 0.000, 21:00:31.295, 1582471831295
31, 1005.69, 774.93, 871.60, 300.09, 0.000, 0.000, 0.000, 21:00:31.309, 1582471831309
32, 923.15, 658.57, 734.62, 178.66, 0.000, 0.000, 0.000, 21:00:31.309, 1582471831309
33, 934.00, 636.04, 732.93, 121.56, 0.000, 0.000, 0.000, 21:00:31.324, 1582471831324
34, 971.70, 825.13, 834.32, 267.81, 0.000, 0.000, 0.000, 21:00:31.324, 1582471831324
35, 951.49, 743.54, 796.23, 267.13, 0.000, 0.000, 0.000, 21:00:31.325, 1582471831325
36, 975.46, 689.18, 783.11, 198.17, 0.000, 0.000, 0.000, 21:00:31.325, 1582471831325
37, 881.89, 604.25, 680.15, 103.13, 0.000, 0.000, 0.000, 21:00:31.339, 1582471831339
38, 960.62, 800.75, 829.67, 261.36, 0.000, 0.000, 0.000, 21:00:31.339, 1582471831339
39, 969.44, 747.35, 818.24, 270.83, 0.000, 0.000, 0.000, 21:00:31.354, 1582471831354
40, 937.10, 667.47, 746.08, 186.87, 0.000, 0.000, 0.000, 21:00:31.354, 1582471831354
41, 880.28, 597.85, 682.24, 96.93, 0.000, 0.000, 0.000, 21:00:31.355, 1582471831355
42, 916.86, 773.46, 810.41, 248.49, 0.000, 0.000, 0.000, 21:00:31.355, 1582471831355
43, 947.05, 733.39, 808.82, 273.10, 0.000, 0.000, 0.000, 21:00:31.385, 1582471831385
44, 934.23, 664.33, 731.26, 178.21, 0.000, 0.000, 0.000, 21:00:31.385, 1582471831385
45, 891.98, 615.78, 679.40, 111.73, 0.000, 0.000, 0.000, 21:00:31.386, 1582471831386
46, 943.82, 798.69, 814.46, 265.48, 0.000, 0.000, 0.000, 21:00:31.386, 1582471831386
47, 955.54, 748.99, 805.73, 276.59, 0.000, 0.000, 0.000, 21:00:31.387, 1582471831387
48, 896.92, 640.08, 721.39, 173.24, 0.000, 0.000, 0.000, 21:00:31.387, 1582471831387
49, 938.69, 639.37, 757.75, 143.73, 0.000, 0.000, 0.000, 21:00:31.399, 1582471831399
50, 970.54, 818.37, 841.73, 274.26, 0.000, 0.000, 0.000, 21:00:31.399, 1582471831399
51, 917.87, 729.60, 763.46, 261.76, 0.000, 0.000, 0.000, 21:00:31.415, 1582471831415
52, 908.28, 654.56, 727.73, 178.36, 0.000, 0.000, 0.000, 21:00:31.415, 1582471831415
53, 862.34, 588.45, 667.92, 92.07, 0.000, 0.000, 0.000, 21:00:31.415, 1582471831415
54, 924.84, 786.54, 792.86, 245.74, 0.000, 0.000, 0.000, 21:00:31.415, 1582471831415
55, 945.22, 738.48, 807.39, 266.79, 0.000, 0.000, 0.000, 21:00:31.429, 1582471831429
56, 868.78, 615.26, 717.58, 159.61, 0.000, 0.000, 0.000, 21:00:31.429, 1582471831429
57, 904.39, 619.84, 715.99, 119.53, 0.000, 0.000, 0.000, 21:00:31.460, 1582471831460
58, 937.92, 805.08, 806.45, 276.18, 0.000, 0.000, 0.000, 21:00:31.460, 1582471831460
59, 919.25, 718.81, 778.36, 248.42, 0.000, 0.000, 0.000, 21:00:31.461, 1582471831461
60, 897.47, 635.12, 739.02, 177.42, 0.000, 0.000, 0.000, 21:00:31.461, 1582471831461
61, 882.16, 612.91, 695.11, 118.03, 0.000, 0.000, 0.000, 21:00:31.461, 1582471831461
62, 910.45, 786.08, 773.36, 243.06, 0.000, 0.000, 0.000, 21:00:31.461, 1582471831461
63, 927.95, 716.22, 805.51, 256.26, 0.000, 0.000, 0.000, 21:00:31.474, 1582471831474
64, 876.92, 634.01, 713.93, 162.45, 0.000, 0.000, 0.000, 21:00:31.474, 1582471831474
65, 836.44, 578.81, 636.27, 77.07, 0.000, 0.000, 0.000, 21:00:31.475, 1582471831475
66, 920.39, 783.99, 798.47, 242.64, 0.000, 0.000, 0.000, 21:00:31.475, 1582471831475
67, 928.35, 725.24, 792.20, 259.45, 0.000, 0.000, 0.000, 21:00:31.489, 1582471831489
68, 904.68, 647.15, 741.62, 178.14, 0.000, 0.000, 0.000, 21:00:31.489, 1582471831489
69, 852.45, 599.70, 656.38, 96.85, 0.000, 0.000, 0.000, 21:00:31.504, 1582471831504
70, 919.78, 777.63, 808.67, 233.14, 0.000, 0.000, 0.000, 21:00:31.504, 1582471831504
71, 919.73, 721.44, 807.26, 268.38, 0.000, 0.000, 0.000, 21:00:31.505, 1582471831505
72, 849.53, 597.57, 684.30, 138.60, 0.000, 0.000, 0.000, 21:00:31.505, 1582471831505
73, 837.97, 572.90, 660.98, 87.42, 0.000, 0.000, 0.000, 21:00:31.519, 1582471831519
74, 958.93, 810.83, 830.01, 271.26, 0.000, 0.000, 0.000, 21:00:31.519, 1582471831519
75, 908.43, 709.00, 785.85, 262.36, 0.000, 0.000, 0.000, 21:00:31.534, 1582471831534
76, 871.51, 625.45, 716.31, 161.39, 0.000, 0.000, 0.000, 21:00:31.534, 1582471831534
77, 847.10, 583.76, 655.66, 80.71, 0.000, 0.000, 0.000, 21:00:31.535, 1582471831535
78, 917.94, 781.07, 805.71, 247.73, 0.000, 0.000, 0.000, 21:00:31.535, 1582471831535
79, 921.24, 714.29, 789.22, 262.57, 0.000, 0.000, 0.000, 21:00:31.549, 1582471831549
80, 893.49, 635.85, 714.11, 173.95, 0.000, 0.000, 0.000, 21:00:31.549, 1582471831549
81, 862.04, 593.10, 675.56, 96.99, 0.000, 0.000, 0.000, 21:00:31.564, 1582471831564
82, 913.34, 769.35, 818.73, 239.04, 0.000, 0.000, 0.000, 21:00:31.564, 1582471831564
83, 903.43, 689.18, 787.18, 244.24, 0.000, 0.000, 0.000, 21:00:31.565, 1582471831565
84, 922.43, 647.26, 774.19, 182.72, 0.000, 0.000, 0.000, 21:00:31.565, 1582471831565
85, 884.06, 594.40, 700.69, 104.25, 0.000, 0.000, 0.000, 21:00:31.579, 1582471831579
86, 934.25, 778.39, 845.71, 255.73, 0.000, 0.000, 0.000, 21:00:31.579, 1582471831579
87, 888.99, 690.27, 766.91, 238.97, 0.000, 0.000, 0.000, 21:00:31.594, 1582471831594
88, 876.24, 622.88, 730.72, 166.82, 0.000, 0.000, 0.000, 21:00:31.594, 1582471831594
89, 879.07, 594.04, 692.83, 97.53, 0.000, 0.000, 0.000, 21:00:31.595, 1582471831595
90, 926.75, 772.11, 822.70, 254.12, 0.000, 0.000, 0.000, 21:00:31.595, 1582471831595
91, 940.35, 719.42, 823.14, 273.36, 0.000, 0.000, 0.000, 21:00:31.609, 1582471831609
92, 883.80, 613.36, 741.10, 171.18, 0.000, 0.000, 0.000, 21:00:31.609, 1582471831609
93, 869.96, 582.97, 684.91, 103.40, 0.000, 0.000, 0.000, 21:00:31.624, 1582471831624
94, 979.20, 813.42, 873.56, 295.12, 0.000, 0.000, 0.000, 21:00:31.624, 1582471831624
95, 933.27, 712.76, 823.32, 278.37, 0.000, 0.000, 0.000, 21:00:31.625, 1582471831625
96, 901.90, 633.18, 737.87, 183.05, 0.000, 0.000, 0.000, 21:00:31.625, 1582471831625
97, 887.35, 597.67, 716.24, 112.50, 0.000, 0.000, 0.000, 21:00:31.639, 1582471831639
98, 946.56, 770.94, 862.46, 264.70, 0.000, 0.000, 0.000, 21:00:31.639, 1582471831639
99, 915.59, 691.98, 808.77, 250.77, 0.000, 0.000, 0.000, 21:00:31.655, 1582471831655
100, 888.60, 620.36, 743.44, 172.20, 0.000, 0.000, 0.000, 21:00:31.655, 1582471831655
101, 900.07, 594.47, 723.70, 115.18, 0.000, 0.000, 0.000, 21:00:31.656, 1582471831656
102, 918.91, 766.70, 814.14, 253.11, 0.000, 0.000, 0.000, 21:00:31.656, 1582471831656
103, 925.42, 707.55, 799.23, 263.09, 0.000, 0.000, 0.000, 21:00:31.669, 1582471831669
104, 884.81, 602.31, 720.00, 161.26, 0.000, 0.000, 0.000, 21:00:31.669, 1582471831669
105, 879.10, 578.76, 708.16, 98.79, 0.000, 0.000, 0.000, 21:00:31.700, 1582471831700
106, 942.39, 770.00, 843.07, 253.54, 0.000, 0.000, 0.000, 21:00:31.700, 1582471831700
107, 934.72, 699.77, 822.63, 260.00, 0.000, 0.000, 0.000, 21:00:31.701, 1582471831701
108, 941.34, 648.09, 783.37, 195.00, 0.000, 0.000, 0.000, 21:00:31.701, 1582471831701
109, 853.58, 560.10, 687.16, 88.67, 0.000, 0.000, 0.000, 21:00:31.701, 1582471831701
110, 934.18, 765.53, 830.23, 259.33, 0.000, 0.000, 0.000, 21:00:31.701, 1582471831701
111, 925.97, 694.68, 830.50, 271.19, 0.000, 0.000, 0.000, 21:00:31.714, 1582471831714
112, 901.47, 619.25, 751.13, 185.32, 0.000, 0.000, 0.000, 21:00:31.714, 1582471831714
113, 865.25, 571.44, 682.05, 100.47, 0.000, 0.000, 0.000, 21:00:31.715, 1582471831715
114, 938.40, 777.26, 822.79, 263.36, 0.000, 0.000, 0.000, 21:00:31.715, 1582471831715
115, 937.28, 711.26, 817.02, 274.46, 0.000, 0.000, 0.000, 21:00:31.729, 1582471831729
116, 878.38, 604.74, 741.36, 171.49, 0.000, 0.000, 0.000, 21:00:31.729, 1582471831729
117, 853.54, 564.39, 689.97, 98.05, 0.000, 0.000, 0.000, 21:00:31.745, 1582471831745
118, 931.43, 770.08, 834.16, 263.58, 0.000, 0.000, 0.000, 21:00:31.745, 1582471831745
119, 940.13, 718.32, 828.03, 280.99, 0.000, 0.000, 0.000, 21:00:31.745, 1582471831745
120, 904.41, 618.80, 752.01, 178.51, 0.000, 0.000, 0.000, 21:00:31.745, 1582471831745
121, 891.24, 579.05, 748.20, 114.51, 0.000, 0.000, 0.000, 21:00:31.759, 1582471831759
122, 925.60, 749.71, 844.71, 252.41, 0.000, 0.000, 0.000, 21:00:31.759, 1582471831759
123, 978.18, 727.02, 883.14, 288.91, 0.000, 0.000, 0.000, 21:00:31.774, 1582471831774
124, 880.56, 617.26, 708.91, 172.69, 0.000, 0.000, 0.000, 21:00:31.774, 1582471831774
125, 878.68, 567.68, 715.27, 106.93, 0.000, 0.000, 0.000, 21:00:31.775, 1582471831775
126, 897.22, 738.42, 811.65, 242.75, 0.000, 0.000, 0.000, 21:00:31.775, 1582471831775
127, 870.71, 650.99, 760.66, 237.06, 0.000, 0.000, 0.000, 21:00:31.789, 1582471831789
128, 879.82, 606.07, 733.37, 167.15, 0.000, 0.000, 0.000, 21:00:31.789, 1582471831789
129, 892.24, 587.58, 727.40, 114.13, 0.000, 0.000, 0.000, 21:00:31.804, 1582471831804
130, 918.23, 745.76, 836.14, 252.98, 0.000, 0.000, 0.000, 21:00:31.804, 1582471831804
131, 909.23, 677.69, 824.08, 261.33, 0.000, 0.000, 0.000, 21:00:31.805, 1582471831805
132, 965.73, 663.54, 837.23, 213.99, 0.000, 0.000, 0.000, 21:00:31.805, 1582471831805
133, 852.70, 565.64, 669.62, 89.50, 0.000, 0.000, 0.000, 21:00:31.819, 1582471831819
134, 909.74, 749.47, 814.43, 243.11, 0.000, 0.000, 0.000, 21:00:31.819, 1582471831819
135, 934.55, 706.45, 837.47, 268.65, 0.000, 0.000, 0.000, 21:00:31.835, 1582471831835
136, 859.60, 599.51, 732.21, 155.60, 0.000, 0.000, 0.000, 21:00:31.835, 1582471831835
137, 865.71, 565.83, 700.07, 88.00, 0.000, 0.000, 0.000, 21:00:31.835, 1582471831835
138, 899.64, 747.20, 822.50, 235.41, 0.000, 0.000, 0.000, 21:00:31.835, 1582471831835
139, 855.12, 593.24, 710.19, 154.90, 0.000, 0.000, 0.000, 21:00:31.850, 1582471831850
140, 851.27, 570.40, 689.87, 94.41, 0.000, 0.000, 0.000, 21:00:31.850, 1582471831850
141, 907.67, 765.93, 815.48, 257.41, 0.000, 0.000, 0.000, 21:00:31.864, 1582471831864
142, 920.90, 710.99, 815.14, 265.71, 0.000, 0.000, 0.000, 21:00:31.864, 1582471831864
143, 884.90, 624.83, 757.58, 178.90, 0.000, 0.000, 0.000, 21:00:31.880, 1582471831880
144, 912.91, 619.48, 758.47, 134.54, 0.000, 0.000, 0.000, 21:00:31.880, 1582471831880
145, 947.37, 790.43, 847.40, 278.26, 0.000, 0.000, 0.000, 21:00:31.880, 1582471831880
146, 950.13, 732.41, 851.65, 291.53, 0.000, 0.000, 0.000, 21:00:31.880, 1582471831880
147, 868.79, 610.32, 747.97, 182.59, 0.000, 0.000, 0.000, 21:00:31.894, 1582471831894
148, 872.97, 593.76, 709.31, 116.84, 0.000, 0.000, 0.000, 21:00:31.894, 1582471831894
149, 915.03, 775.94, 819.75, 261.21, 0.000, 0.000, 0.000, 21:00:31.910, 1582471831910
150, 909.56, 701.71, 832.27, 280.06, 0.000, 0.000, 0.000, 21:00:31.910, 1582471831910
151, 907.84, 641.37, 772.42, 206.92, 0.000, 0.000, 0.000, 21:00:31.910, 1582471831910
152, 864.21, 584.25, 718.52, 116.94, 0.000, 0.000, 0.000, 21:00:31.910, 1582471831910
153, 896.31, 756.55, 806.92, 253.68, 0.000, 0.000, 0.000, 21:00:31.924, 1582471831924
154, 944.38, 733.61, 847.13, 305.41, 0.000, 0.000, 0.000, 21:00:31.924, 1582471831924
155, 895.10, 625.04, 764.93, 200.17, 0.000, 0.000, 0.000, 21:00:31.940, 1582471831940
156, 837.36, 568.62, 681.48, 103.92, 0.000, 0.000, 0.000, 21:00:31.940, 1582471831940
157, 955.10, 790.91, 875.16, 286.19, 0.000, 0.000, 0.000, 21:00:31.940, 1582471831940
158, 925.92, 727.54, 805.43, 294.51, 0.000, 0.000, 0.000, 21:00:31.940, 1582471831940
159, 892.97, 630.97, 756.81, 215.60, 0.000, 0.000, 0.000, 21:00:31.954, 1582471831954
160, 915.02, 610.34, 764.28, 156.62, 0.000, 0.000, 0.000, 21:00:31.954, 1582471831954
161, 951.54, 796.66, 850.81, 292.91, 0.000, 0.000, 0.000, 21:00:31.969, 1582471831969
162, 931.53, 722.06, 851.86, 314.22, 0.000, 0.000, 0.000, 21:00:31.969, 1582471831969
163, 905.12, 629.74, 760.44, 211.28, 0.000, 0.000, 0.000, 21:00:31.970, 1582471831970
164, 851.51, 575.39, 701.50, 126.52, 0.000, 0.000, 0.000, 21:00:31.970, 1582471831970
165, 984.81, 803.02, 903.54, 302.47, 0.000, 0.000, 0.000, 21:00:31.984, 1582471831984
166, 919.54, 715.19, 816.32, 293.27, 0.000, 0.000, 0.000, 21:00:31.984, 1582471831984
167, 897.20, 615.92, 774.89, 195.52, 0.000, 0.000, 0.000, 21:00:32.015, 1582471832015
168, 864.90, 568.32, 710.92, 115.12, 0.000, 0.000, 0.000, 21:00:32.015, 1582471832015
169, 921.66, 755.19, 838.78, 268.57, 0.000, 0.000, 0.000, 21:00:32.016, 1582471832016
170, 944.88, 721.61, 835.31, 302.72, 0.000, 0.000, 0.000, 21:00:32.016, 1582471832016
171, 888.81, 615.25, 755.81, 197.13, 0.000, 0.000, 0.000, 21:00:32.016, 1582471832016
172, 855.23, 557.58, 702.39, 112.88, 0.000, 0.000, 0.000, 21:00:32.016, 1582471832016
173, 925.60, 754.04, 834.09, 274.33, 0.000, 0.000, 0.000, 21:00:32.029, 1582471832029
174, 892.08, 669.20, 803.03, 273.98, 0.000, 0.000, 0.000, 21:00:32.029, 1582471832029
175, 912.52, 624.77, 777.23, 210.98, 0.000, 0.000, 0.000, 21:00:32.030, 1582471832030
176, 850.00, 568.05, 677.46, 117.61, 0.000, 0.000, 0.000, 21:00:32.030, 1582471832030
177, 931.75, 767.01, 836.99, 275.04, 0.000, 0.000, 0.000, 21:00:32.044, 1582471832044
178, 904.81, 681.24, 814.69, 279.87, 0.000, 0.000, 0.000, 21:00:32.044, 1582471832044
179, 869.59, 589.18, 741.08, 181.70, 0.000, 0.000, 0.000, 21:00:32.059, 1582471832059
180, 836.97, 550.67, 676.65, 107.34, 0.000, 0.000, 0.000, 21:00:32.059, 1582471832059
181, 880.94, 716.22, 812.54, 250.94, 0.000, 0.000, 0.000, 21:00:32.060, 1582471832060
182, 867.66, 642.08, 775.70, 252.04, 0.000, 0.000, 0.000, 21:00:32.060, 1582471832060
183, 865.51, 583.10, 729.42, 178.15, 0.000, 0.000, 0.000, 21:00:32.074, 1582471832074
184, 819.71, 524.28, 669.62, 95.14, 0.000, 0.000, 0.000, 21:00:32.074, 1582471832074
185, 908.17, 735.00, 834.08, 254.29, 0.000, 0.000, 0.000, 21:00:32.089, 1582471832089
186, 871.92, 662.63, 770.49, 265.73, 0.000, 0.000, 0.000, 21:00:32.089, 1582471832089
187, 858.31, 579.45, 732.63, 185.79, 0.000, 0.000, 0.000, 21:00:32.090, 1582471832090
188, 826.54, 532.14, 678.25, 102.65, 0.000, 0.000, 0.000, 21:00:32.090, 1582471832090
189, 871.28, 706.73, 791.57, 264.45, 0.000, 0.000, 0.000, 21:00:32.104, 1582471832104
190, 887.30, 657.29, 791.65, 266.90, 0.000, 0.000, 0.000, 21:00:32.104, 1582471832104
191, 866.09, 580.11, 724.22, 173.68, 0.000, 0.000, 0.000, 21:00:32.119, 1582471832119
192, 802.94, 514.21, 646.94, 92.96, 0.000, 0.000, 0.000, 21:00:32.119, 1582471832119
193, 894.67, 729.90, 808.53, 267.02, 0.000, 0.000, 0.000, 21:00:32.120, 1582471832120
194, 884.46, 657.04, 797.00, 268.12, 0.000, 0.000, 0.000, 21:00:32.120, 1582471832120
195, 889.11, 584.47, 765.14, 202.78, 0.000, 0.000, 0.000, 21:00:32.134, 1582471832134
196, 865.10, 550.89, 717.14, 129.14, 0.000, 0.000, 0.000, 21:00:32.134, 1582471832134
197, 893.06, 726.11, 791.30, 259.24, 0.000, 0.000, 0.000, 21:00:32.149, 1582471832149
198, 900.19, 671.57, 803.35, 280.91, 0.000, 0.000, 0.000, 21:00:32.149, 1582471832149
199, 840.57, 557.56, 716.05, 177.78, 0.000, 0.000, 0.000, 21:00:32.150, 1582471832150
200, 829.80, 534.27, 673.49, 110.83, 0.000, 0.000, 0.000, 21:00:32.150, 1582471832150
0, 922.92, 741.77, 843.62, 288.08, 0.000, 0.000, 0.000, 21:00:32.165, 1582471832165
1, 903.37, 667.68, 819.85, 292.69, 0.000, 0.000, 0.000, 21:00:32.165, 1582471832165
2, 895.62, 606.40, 752.38, 212.44, 0.000, 0.000, 0.000, 21:00:32.165, 1582471832165
3, 864.28, 549.05, 723.44, 135.79, 0.000, 0.000, 0.000, 21:00:32.179, 1582471832179
4, 894.68, 723.07, 808.04, 277.22, 0.000, 0.000, 0.000, 21:00:32.179, 1582471832179
5, 940.12, 693.46, 842.03, 310.34, 0.000, 0.000, 0.000, 21:00:32.194, 1582471832194
6, 883.35, 590.06, 762.65, 202.63, 0.000, 0.000, 0.000, 21:00:32.194, 1582471832194
7, 874.52, 550.67, 714.48, 132.13, 0.000, 0.000, 0.000, 21:00:32.195, 1582471832195
8, 923.49, 739.26, 826.60, 295.58, 0.000, 0.000, 0.000, 21:00:32.195, 1582471832195
9, 899.38, 660.17, 815.45, 291.19, 0.000, 0.000, 0.000, 21:00:32.209, 1582471832209
10, 858.76, 564.67, 717.05, 185.06, 0.000, 0.000, 0.000, 21:00:32.209, 1582471832209
11, 842.87, 530.06, 673.02, 114.27, 0.000, 0.000, 0.000, 21:00:32.224, 1582471832224
12, 886.71, 719.37, 803.22, 286.89, 0.000, 0.000, 0.000, 21:00:32.224, 1582471832224
13, 880.90, 635.03, 791.06, 274.47, 0.000, 0.000, 0.000, 21:00:32.225, 1582471832225
14, 880.63, 582.92, 732.52, 216.39, 0.000, 0.000, 0.000, 21:00:32.225, 1582471832225
15, 818.37, 495.42, 668.26, 101.69, 0.000, 0.000, 0.000, 21:00:32.255, 1582471832255
16, 879.14, 692.58, 793.16, 260.29, 0.000, 0.000, 0.000, 21:00:32.255, 1582471832255
17, 927.36, 663.76, 828.94, 287.78, 0.000, 0.000, 0.000, 21:00:32.256, 1582471832256
18, 872.32, 559.38, 742.70, 189.09, 0.000, 0.000, 0.000, 21:00:32.256, 1582471832256
19, 777.19, 478.26, 603.49, 72.04, 0.000, 0.000, 0.000, 21:00:32.257, 1582471832257
20, 868.86, 695.34, 759.30, 248.71, 0.000, 0.000, 0.000, 21:00:32.257, 1582471832257
21, 898.41, 675.23, 785.64, 316.95, 0.000, 0.000, 0.000, 21:00:32.269, 1582471832269
22, 830.50, 534.91, 689.35, 152.77, 0.000, 0.000, 0.000, 21:00:32.269, 1582471832269
23, 767.06, 444.96, 603.82, 54.28, 0.000, 0.000, 0.000, 21:00:32.285, 1582471832285
24, 861.37, 690.67, 755.05, 251.34, 0.000, 0.000, 0.000, 21:00:32.285, 1582471832285
25, 870.30, 624.85, 760.00, 254.45, 0.000, 0.000, 0.000, 21:00:32.285, 1582471832285
26, 824.74, 537.06, 673.92, 169.15, 0.000, 0.000, 0.000, 21:00:32.285, 1582471832285
27, 758.86, 453.63, 615.99, 57.28, 0.000, 0.000, 0.000, 21:00:32.299, 1582471832299
28, 852.93, 678.22, 733.01, 231.67, 0.000, 0.000, 0.000, 21:00:32.299, 1582471832299
29, 876.69, 628.48, 760.33, 254.51, 0.000, 0.000, 0.000, 21:00:32.330, 1582471832330
30, 824.55, 535.31, 676.34, 153.42, 0.000, 0.000, 0.000, 21:00:32.330, 1582471832330
31, 818.28, 500.68, 636.51, 89.49, 0.000, 0.000, 0.000, 21:00:32.331, 1582471832331
32, 854.66, 673.48, 761.69, 229.19, 0.000, 0.000, 0.000, 21:00:32.331, 1582471832331
33, 846.15, 623.68, 720.49, 271.06, 0.000, 0.000, 0.000, 21:00:32.331, 1582471832331
34, 798.83, 512.99, 649.79, 154.76, 0.000, 0.000, 0.000, 21:00:32.331, 1582471832331
35, 780.45, 484.32, 588.40, 77.11, 0.000, 0.000, 0.000, 21:00:32.344, 1582471832344
36, 857.28, 694.63, 739.52, 249.38, 0.000, 0.000, 0.000, 21:00:32.344, 1582471832344
37, 840.92, 617.02, 733.14, 245.18, 0.000, 0.000, 0.000, 21:00:32.345, 1582471832345
38, 818.66, 531.13, 662.94, 177.63, 0.000, 0.000, 0.000, 21:00:32.345, 1582471832345
39, 807.19, 502.43, 608.29, 105.94, 0.000, 0.000, 0.000, 21:00:32.359, 1582471832359
40, 846.07, 686.86, 722.98, 240.84, 0.000, 0.000, 0.000, 21:00:32.359, 1582471832359
41, 846.23, 615.34, 721.43, 248.43, 0.000, 0.000, 0.000, 21:00:32.375, 1582471832375
42, 823.35, 532.98, 671.93, 170.34, 0.000, 0.000, 0.000, 21:00:32.375, 1582471832375
43, 798.57, 489.82, 616.65, 96.99, 0.000, 0.000, 0.000, 21:00:32.375, 1582471832375
44, 844.33, 692.71, 728.85, 261.18, 0.000, 0.000, 0.000, 21:00:32.375, 1582471832375
45, 846.44, 642.36, 733.11, 292.42, 0.000, 0.000, 0.000, 21:00:32.389, 1582471832389
46, 826.59, 542.75, 657.23, 175.17, 0.000, 0.000, 0.000, 21:00:32.389, 1582471832389
47, 810.09, 500.13, 624.74, 99.98, 0.000, 0.000, 0.000, 21:00:32.404, 1582471832404
48, 843.73, 689.39, 727.94, 255.03, 0.000, 0.000, 0.000, 21:00:32.404, 1582471832404
49, 836.34, 618.23, 716.47, 254.26, 0.000, 0.000, 0.000, 21:00:32.405, 1582471832405
50, 845.16, 572.14, 676.29, 200.67, 0.000, 0.000, 0.000, 21:00:32.405, 1582471832405
51, 801.47, 502.85, 599.57, 99.65, 0.000, 0.000, 0.000, 21:00:32.419, 1582471832419
52, 856.47, 691.83, 732.93, 236.47, 0.000, 0.000, 0.000, 21:00:32.419, 1582471832419
53, 852.03, 635.62, 738.82, 273.16, 0.000, 0.000, 0.000, 21:00:32.434, 1582471832434
54, 841.37, 570.31, 670.23, 204.14, 0.000, 0.000, 0.000, 21:00:32.434, 1582471832434
55, 808.20, 494.87, 613.78, 97.16, 0.000, 0.000, 0.000, 21:00:32.435, 1582471832435
56, 883.78, 723.05, 762.01, 279.91, 0.000, 0.000, 0.000, 21:00:32.435, 1582471832435
57, 901.43, 695.66, 777.82, 334.79, 0.000, 0.000, 0.000, 21:00:32.449, 1582471832449
58, 855.19, 567.85, 675.69, 181.00, 0.000, 0.000, 0.000, 21:00:32.449, 1582471832449
59, 817.35, 507.68, 630.69, 108.72, 0.000, 0.000, 0.000, 21:00:32.465, 1582471832465
60, 892.12, 727.16, 801.57, 298.68, 0.000, 0.000, 0.000, 21:00:32.465, 1582471832465
61, 875.27, 677.33, 730.76, 292.21, 0.000, 0.000, 0.000, 21:00:32.465, 1582471832465
62, 826.31, 546.01, 652.81, 169.30, 0.000, 0.000, 0.000, 21:00:32.465, 1582471832465
63, 830.44, 523.17, 623.90, 112.96, 0.000, 0.000, 0.000, 21:00:32.479, 1582471832479
64, 900.21, 733.32, 772.23, 279.67, 0.000, 0.000, 0.000, 21:00:32.479, 1582471832479
65, 868.40, 655.33, 742.07, 290.50, 0.000, 0.000, 0.000, 21:00:32.494, 1582471832494
66, 842.81, 575.59, 674.18, 204.66, 0.000, 0.000, 0.000, 21:00:32.494, 1582471832494
67, 855.74, 554.06, 644.84, 148.25, 0.000, 0.000, 0.000, 21:00:32.495, 1582471832495
68, 901.36, 757.39, 786.90, 304.89, 0.000, 0.000, 0.000, 21:00:32.495, 1582471832495
69, 907.49, 677.66, 792.56, 315.60, 0.000, 0.000, 0.000, 21:00:32.509, 1582471832509
70, 816.05, 538.71, 654.35, 164.43, 0.000, 0.000, 0.000, 21:00:32.509, 1582471832509
71, 812.89, 499.88, 609.69, 98.24, 0.000, 0.000, 0.000, 21:00:32.540, 1582471832540
72, 884.79, 730.57, 765.98, 284.68, 0.000, 0.000, 0.000, 21:00:32.540, 1582471832540
73, 893.47, 684.36, 767.67, 331.76, 0.000, 0.000, 0.000, 21:00:32.541, 1582471832541
74, 848.78, 575.21, 673.33, 208.28, 0.000, 0.000, 0.000, 21:00:32.541, 1582471832541
75, 844.30, 546.10, 637.54, 145.21, 0.000, 0.000, 0.000, 21:00:32.541, 1582471832541
76, 871.74, 721.43, 750.89, 278.41, 0.000, 0.000, 0.000, 21:00:32.542, 1582471832542
77, 838.41, 627.83, 704.83, 257.90, 0.000, 0.000, 0.000, 21:00:32.570, 1582471832570
78, 876.93, 606.82, 688.51, 218.26, 0.000, 0.000, 0.000, 21:00:32.570, 1582471832570
79, 890.04, 572.63, 686.00, 176.79, 0.000, 0.000, 0.000, 21:00:32.571, 1582471832571
80, 855.64, 730.80, 730.34, 272.46, 0.000, 0.000, 0.000, 21:00:32.571, 1582471832571
81, 884.79, 682.92, 752.75, 311.72, 0.000, 0.000, 0.000, 21:00:32.571, 1582471832571
82, 860.72, 590.57, 702.64, 225.52, 0.000, 0.000, 0.000, 21:00:32.571, 1582471832571
83, 830.65, 535.00, 639.14, 152.93, 0.000, 0.000, 0.000, 21:00:32.584, 1582471832584
84, 878.24, 753.07, 750.39, 319.23, 0.000, 0.000, 0.000, 21:00:32.584, 1582471832584
85, 895.07, 684.01, 751.79, 291.10, 0.000, 0.000, 0.000, 21:00:32.585, 1582471832585
86, 809.71, 557.23, 637.49, 195.05, 0.000, 0.000, 0.000, 21:00:32.585, 1582471832585
87, 783.07, 485.19, 594.91, 88.33, 0.000, 0.000, 0.000, 21:00:32.599, 1582471832599
88, 902.81, 774.06, 790.20, 335.99, 0.000, 0.000, 0.000, 21:00:32.599, 1582471832599
89, 903.95, 714.90, 784.50, 345.84, 0.000, 0.000, 0.000, 21:00:32.614, 1582471832614
90, 856.61, 620.91, 668.84, 235.46, 0.000, 0.000, 0.000, 21:00:32.614, 1582471832614
91, 800.08, 486.11, 587.15, 77.17, 0.000, 0.000, 0.000, 21:00:32.615, 1582471832615
92, 894.76, 786.04, 773.74, 335.41, 0.000, 0.000, 0.000, 21:00:32.615, 1582471832615
93, 821.61, 622.16, 687.95, 217.75, 0.000, 0.000, 0.000, 21:00:32.629, 1582471832629
94, 815.69, 560.00, 647.50, 189.79, 0.000, 0.000, 0.000, 21:00:32.629, 1582471832629
95, 862.24, 565.75, 638.71, 152.05, 0.000, 0.000, 0.000, 21:00:32.644, 1582471832644
96, 882.19, 763.91, 761.20, 288.66, 0.000, 0.000, 0.000, 21:00:32.644, 1582471832644
97, 837.79, 643.89, 703.31, 253.12, 0.000, 0.000, 0.000, 21:00:32.645, 1582471832645
98, 801.68, 558.69, 619.90, 181.89, 0.000, 0.000, 0.000, 21:00:32.645, 1582471832645
99, 861.08, 569.70, 650.04, 166.38, 0.000, 0.000, 0.000, 21:00:32.659, 1582471832659
100, 821.73, 689.41, 679.32, 203.76, 0.000, 0.000, 0.000, 21:00:32.659, 1582471832659
101, 862.16, 680.10, 752.89, 322.81, 0.000, 0.000, 0.000, 21:00:32.674, 1582471832674
102, 777.78, 516.45, 580.95, 83.86, 0.000, 0.000, 0.000, 21:00:32.674, 1582471832674
103, 815.83, 516.04, 587.83, 76.38, 0.000, 0.000, 0.000, 21:00:32.675, 1582471832675
104, 930.93, 829.72, 783.81, 344.65, 0.000, 0.000, 0.000, 21:00:32.675, 1582471832675
105, 796.85, 606.14, 668.59, 206.34, 0.000, 0.000, 0.000, 21:00:32.689, 1582471832689
106, 847.98, 577.64, 664.55, 182.41, 0.000, 0.000, 0.000, 21:00:32.689, 1582471832689
107, 788.67, 511.02, 563.14, 84.10, 0.000, 0.000, 0.000, 21:00:32.705, 1582471832705
108, 849.69, 736.39, 722.46, 275.74, 0.000, 0.000, 0.000, 21:00:32.705, 1582471832705
109, 890.65, 700.15, 749.71, 299.34, 0.000, 0.000, 0.000, 21:00:32.705, 1582471832705
110, 791.86, 544.94, 594.10, 157.91, 0.000, 0.000, 0.000, 21:00:32.705, 1582471832705
111, 819.03, 520.94, 583.93, 61.30, 0.000, 0.000, 0.000, 21:00:32.719, 1582471832719
112, 912.67, 782.38, 775.92, 288.24, 0.000, 0.000, 0.000, 21:00:32.719, 1582471832719
113, 880.95, 694.37, 738.29, 291.40, 0.000, 0.000, 0.000, 21:00:32.735, 1582471832735
114, 811.75, 562.62, 621.36, 166.17, 0.000, 0.000, 0.000, 21:00:32.735, 1582471832735
115, 885.04, 578.03, 671.00, 162.77, 0.000, 0.000, 0.000, 21:00:32.735, 1582471832735
116, 929.31, 812.12, 774.55, 305.38, 0.000, 0.000, 0.000, 21:00:32.735, 1582471832735
117, 873.54, 703.37, 734.30, 300.85, 0.000, 0.000, 0.000, 21:00:32.749, 1582471832749
118, 857.88, 611.51, 669.98, 221.29, 0.000, 0.000, 0.000, 21:00:32.749, 1582471832749
119, 829.04, 535.36, 600.62, 94.66, 0.000, 0.000, 0.000, 21:00:32.765, 1582471832765
120, 898.72, 789.44, 753.61, 296.68, 0.000, 0.000, 0.000, 21:00:32.765, 1582471832765
121, 877.93, 693.62, 736.07, 301.13, 0.000, 0.000, 0.000, 21:00:32.765, 1582471832765
122, 900.93, 658.07, 687.90, 246.73, 0.000, 0.000, 0.000, 21:00:32.765, 1582471832765
123, 871.62, 563.75, 660.59, 149.28, 0.000, 0.000, 0.000, 21:00:32.779, 1582471832779
124, 879.34, 767.59, 727.33, 274.61, 0.000, 0.000, 0.000, 21:00:32.779, 1582471832779
125, 978.03, 817.92, 815.57, 401.30, 0.000, 0.000, 0.000, 21:00:32.794, 1582471832794
126, 862.51, 591.38, 669.32, 181.37, 0.000, 0.000, 0.000, 21:00:32.794, 1582471832794
127, 883.93, 586.65, 654.85, 149.40, 0.000, 0.000, 0.000, 21:00:32.809, 1582471832809
128, 933.13, 822.15, 793.70, 335.95, 0.000, 0.000, 0.000, 21:00:32.809, 1582471832809
129, 939.00, 760.55, 794.51, 349.82, 0.000, 0.000, 0.000, 21:00:32.810, 1582471832810
130, 860.76, 617.10, 667.03, 216.66, 0.000, 0.000, 0.000, 21:00:32.810, 1582471832810
131, 877.78, 592.89, 665.15, 161.35, 0.000, 0.000, 0.000, 21:00:32.840, 1582471832840
132, 964.55, 853.92, 820.06, 346.62, 0.000, 0.000, 0.000, 21:00:32.840, 1582471832840
133, 929.93, 755.30, 793.19, 345.21, 0.000, 0.000, 0.000, 21:00:32.841, 1582471832841
134, 891.64, 626.13, 701.76, 223.80, 0.000, 0.000, 0.000, 21:00:32.841, 1582471832841
135, 875.35, 581.76, 635.38, 141.84, 0.000, 0.000, 0.000, 21:00:32.842, 1582471832842
136, 963.63, 841.92, 822.11, 346.35, 0.000, 0.000, 0.000, 21:00:32.842, 1582471832842
137, 913.67, 751.07, 776.92, 345.22, 0.000, 0.000, 0.000, 21:00:32.854, 1582471832854
138, 902.20, 649.50, 703.45, 244.00, 0.000, 0.000, 0.000, 21:00:32.854, 1582471832854
139, 907.89, 598.89, 671.61, 164.76, 0.000, 0.000, 0.000, 21:00:32.855, 1582471832855
140, 957.98, 849.31, 781.38, 346.37, 0.000, 0.000, 0.000, 21:00:32.855, 1582471832855
141, 928.26, 761.35, 790.24, 358.48, 0.000, 0.000, 0.000, 21:00:32.869, 1582471832869
142, 884.76, 628.97, 692.90, 232.55, 0.000, 0.000, 0.000, 21:00:32.869, 1582471832869
143, 852.38, 577.90, 600.37, 140.67, 0.000, 0.000, 0.000, 21:00:32.884, 1582471832884
144, 918.93, 818.88, 772.74, 318.00, 0.000, 0.000, 0.000, 21:00:32.884, 1582471832884
145, 934.38, 767.73, 779.70, 347.90, 0.000, 0.000, 0.000, 21:00:32.885, 1582471832885
146, 898.71, 655.27, 695.05, 238.19, 0.000, 0.000, 0.000, 21:00:32.885, 1582471832885
147, 876.69, 585.58, 638.68, 154.72, 0.000, 0.000, 0.000, 21:00:32.899, 1582471832899
148, 926.79, 814.12, 784.07, 323.36, 0.000, 0.000, 0.000, 21:00:32.899, 1582471832899
149, 939.55, 766.96, 790.83, 351.55, 0.000, 0.000, 0.000, 21:00:32.914, 1582471832914
150, 886.71, 640.09, 695.70, 233.16, 0.000, 0.000, 0.000, 21:00:32.914, 1582471832914
151, 882.90, 587.90, 645.90, 157.70, 0.000, 0.000, 0.000, 21:00:32.915, 1582471832915
152, 940.46, 820.43, 780.58, 331.21, 0.000, 0.000, 0.000, 21:00:32.915, 1582471832915
153, 943.86, 771.29, 784.32, 373.76, 0.000, 0.000, 0.000, 21:00:32.929, 1582471832929
154, 914.75, 649.10, 718.91, 243.68, 0.000, 0.000, 0.000, 21:00:32.929, 1582471832929
155, 855.56, 565.10, 618.63, 142.97, 0.000, 0.000, 0.000, 21:00:32.944, 1582471832944
156, 931.99, 818.50, 800.71, 332.67, 0.000, 0.000, 0.000, 21:00:32.944, 1582471832944
157, 961.00, 766.46, 815.44, 365.03, 0.000, 0.000, 0.000, 21:00:32.945, 1582471832945
158, 924.26, 666.25, 698.63, 252.08, 0.000, 0.000, 0.000, 21:00:32.945, 1582471832945
159, 881.79, 597.13, 630.27, 158.96, 0.000, 0.000, 0.000, 21:00:32.959, 1582471832959
160, 953.61, 830.19, 809.88, 347.00, 0.000, 0.000, 0.000, 21:00:32.959, 1582471832959
161, 968.46, 788.62, 810.59, 385.49, 0.000, 0.000, 0.000, 21:00:32.975, 1582471832975
162, 898.02, 649.22, 685.27, 234.56, 0.000, 0.000, 0.000, 21:00:32.975, 1582471832975
163, 888.73, 588.51, 654.78, 155.32, 0.000, 0.000, 0.000, 21:00:32.975, 1582471832975
164, 930.61, 821.40, 783.76, 328.92, 0.000, 0.000, 0.000, 21:00:32.975, 1582471832975
165, 957.32, 786.04, 795.04, 380.15, 0.000, 0.000, 0.000, 21:00:32.989, 1582471832989
166, 923.29, 653.01, 720.83, 248.49, 0.000, 0.000, 0.000, 21:00:32.989, 1582471832989
167, 905.45, 605.46, 671.50, 174.19, 0.000, 0.000, 0.000, 21:00:33.005, 1582471833005
168, 930.62, 807.52, 789.10, 318.58, 0.000, 0.000, 0.000, 21:00:33.005, 1582471833005
169, 975.55, 787.76, 812.04, 370.24, 0.000, 0.000, 0.000, 21:00:33.005, 1582471833005
170, 902.84, 647.03, 695.02, 240.12, 0.000, 0.000, 0.000, 21:00:33.005, 1582471833005
171, 878.58, 575.98, 641.46, 151.71, 0.000, 0.000, 0.000, 21:00:33.019, 1582471833019
172, 936.98, 808.73, 792.83, 316.66, 0.000, 0.000, 0.000, 21:00:33.019, 1582471833019
173, 934.43, 751.49, 778.04, 352.07, 0.000, 0.000, 0.000, 21:00:33.034, 1582471833034
174, 882.28, 631.52, 665.23, 210.75, 0.000, 0.000, 0.000, 21:00:33.034, 1582471833034
175, 873.66, 572.91, 613.32, 134.36, 0.000, 0.000, 0.000, 21:00:33.049, 1582471833049
176, 951.46, 831.40, 793.57, 336.14, 0.000, 0.000, 0.000, 21:00:33.049, 1582471833049
177, 936.80, 744.03, 792.37, 335.80, 0.000, 0.000, 0.000, 21:00:33.050, 1582471833050
178, 914.87, 640.91, 707.16, 223.56, 0.000, 0.000, 0.000, 21:00:33.050, 1582471833050
179, 915.89, 600.69, 665.14, 154.61, 0.000, 0.000, 0.000, 21:00:33.064, 1582471833064
180, 918.79, 805.92, 770.67, 310.26, 0.000, 0.000, 0.000, 21:00:33.064, 1582471833064
181, 962.79, 773.77, 818.82, 360.89, 0.000, 0.000, 0.000, 21:00:33.065, 1582471833065
182, 905.41, 638.00, 689.43, 225.37, 0.000, 0.000, 0.000, 21:00:33.065, 1582471833065
183, 914.34, 599.15, 675.92, 157.82, 0.000, 0.000, 0.000, 21:00:33.079, 1582471833079
184, 1003.56, 865.65, 829.57, 351.02, 0.000, 0.000, 0.000, 21:00:33.079, 1582471833079
185, 917.98, 745.71, 761.08, 339.74, 0.000, 0.000, 0.000, 21:00:33.094, 1582471833094
186, 889.70, 626.24, 682.40, 213.21, 0.000, 0.000, 0.000, 21:00:33.094, 1582471833094
187, 900.24, 582.36, 646.12, 147.62, 0.000, 0.000, 0.000, 21:00:33.095, 1582471833095
188, 947.24, 806.05, 793.92, 309.71, 0.000, 0.000, 0.000, 21:00:33.095, 1582471833095
189, 941.16, 757.26, 790.10, 335.27, 0.000, 0.000, 0.000, 21:00:33.109, 1582471833109
190, 886.33, 622.16, 677.91, 218.37, 0.000, 0.000, 0.000, 21:00:33.109, 1582471833109
191, 884.33, 573.02, 641.28, 137.96, 0.000, 0.000, 0.000, 21:00:33.125, 1582471833125
192, 985.16, 844.76, 820.82, 342.86, 0.000, 0.000, 0.000, 21:00:33.125, 1582471833125
193, 950.96, 751.95, 794.86, 345.32, 0.000, 0.000, 0.000, 21:00:33.125, 1582471833125
194, 899.23, 632.19, 679.44, 223.26, 0.000, 0.000, 0.000, 21:00:33.125, 1582471833125
195, 894.02, 595.10, 628.65, 140.47, 0.000, 0.000, 0.000, 21:00:33.155, 1582471833155
196, 950.69, 815.63, 794.75, 317.31, 0.000, 0.000, 0.000, 21:00:33.155, 1582471833155
197, 970.30, 777.42, 813.81, 362.42, 0.000, 0.000, 0.000, 21:00:33.156, 1582471833156
198, 931.11, 662.45, 717.22, 245.49, 0.000, 0.000, 0.000, 21:00:33.156, 1582471833156
199, 919.36, 597.61, 669.52, 150.13, 0.000, 0.000, 0.000, 21:00:33.157, 1582471833157
200, 986.72, 858.74, 828.67, 339.94, 0.000, 0.000, 0.000, 21:00:33.157, 1582471833157
0, 961.61, 769.41, 795.49, 351.18, 0.000, 0.000, 0.000, 21:00:33.170, 1582471833170
1, 934.36, 662.88, 707.46, 238.58, 0.000, 0.000, 0.000, 21:00:33.170, 1582471833170
2, 904.03, 594.79, 634.28, 139.60, 0.000, 0.000, 0.000, 21:00:33.170, 1582471833170
3, 949.04, 823.05, 806.52, 314.10, 0.000, 0.000, 0.000, 21:00:33.184, 1582471833184
4, 957.24, 758.84, 809.28, 330.87, 0.000, 0.000, 0.000, 21:00:33.184, 1582471833184
5, 908.28, 650.14, 686.19, 217.07, 0.000, 0.000, 0.000, 21:00:33.200, 1582471833200
6, 887.21, 583.85, 634.78, 133.96, 0.000, 0.000, 0.000, 21:00:33.200, 1582471833200
7, 948.46, 816.89, 781.85, 302.77, 0.000, 0.000, 0.000, 21:00:33.200, 1582471833200
8, 965.13, 761.05, 817.57, 349.89, 0.000, 0.000, 0.000, 21:00:33.200, 1582471833200
9, 913.13, 644.59, 683.69, 221.57, 0.000, 0.000, 0.000, 21:00:33.214, 1582471833214
10, 910.93, 578.61, 676.82, 133.90, 0.000, 0.000, 0.000, 21:00:33.214, 1582471833214
11, 920.33, 809.54, 749.66, 301.89, 0.000, 0.000, 0.000, 21:00:33.229, 1582471833229
12, 955.00, 771.04, 794.31, 344.85, 0.000, 0.000, 0.000, 21:00:33.229, 1582471833229
13, 919.34, 647.60, 705.51, 227.34, 0.000, 0.000, 0.000, 21:00:33.230, 1582471833230
14, 948.71, 633.16, 685.67, 170.48, 0.000, 0.000, 0.000, 21:00:33.230, 1582471833230
15, 961.61, 826.38, 803.23, 311.59, 0.000, 0.000, 0.000, 21:00:33.244, 1582471833244
16, 944.11, 749.55, 795.85, 322.76, 0.000, 0.000, 0.000, 21:00:33.244, 1582471833244
17, 921.63, 649.18, 700.14, 216.91, 0.000, 0.000, 0.000, 21:00:33.259, 1582471833259
18, 902.98, 577.09, 656.42, 128.29, 0.000, 0.000, 0.000, 21:00:33.259, 1582471833259
19, 974.12, 838.88, 810.71, 321.40, 0.000, 0.000, 0.000, 21:00:33.260, 1582471833260
20, 923.66, 749.44, 766.27, 323.86, 0.000, 0.000, 0.000, 21:00:33.260, 1582471833260
21, 918.87, 654.56, 704.99, 230.00, 0.000, 0.000, 0.000, 21:00:33.274, 1582471833274
22, 912.11, 588.23, 653.07, 133.93, 0.000, 0.000, 0.000, 21:00:33.274, 1582471833274
23, 921.73, 803.58, 767.47, 301.63, 0.000, 0.000, 0.000, 21:00:33.289, 1582471833289
24, 968.82, 784.43, 810.93, 356.61, 0.000, 0.000, 0.000, 21:00:33.289, 1582471833289
25, 932.54, 654.19, 732.78, 228.11, 0.000, 0.000, 0.000, 21:00:33.290, 1582471833290
26, 926.89, 602.99, 679.14, 140.28, 0.000, 0.000, 0.000, 21:00:33.290, 1582471833290
27, 976.66, 840.44, 817.37, 322.86, 0.000, 0.000, 0.000, 21:00:33.304, 1582471833304
28, 984.71, 790.99, 818.92, 352.56, 0.000, 0.000, 0.000, 21:00:33.304, 1582471833304
29, 906.94, 648.28, 681.83, 219.84, 0.000, 0.000, 0.000, 21:00:33.319, 1582471833319
30, 888.86, 582.61, 650.85, 127.64, 0.000, 0.000, 0.000, 21:00:33.319, 1582471833319
31, 993.10, 858.83, 817.68, 331.35, 0.000, 0.000, 0.000, 21:00:33.320, 1582471833320
32, 997.83, 808.48, 821.08, 356.64, 0.000, 0.000, 0.000, 21:00:33.320, 1582471833320
33, 911.13, 650.16, 718.40, 217.05, 0.000, 0.000, 0.000, 21:00:33.334, 1582471833334
34, 909.46, 593.07, 659.64, 126.97, 0.000, 0.000, 0.000, 21:00:33.334, 1582471833334
35, 987.51, 849.31, 829.80, 324.40, 0.000, 0.000, 0.000, 21:00:33.349, 1582471833349
36, 995.00, 808.28, 825.82, 357.43, 0.000, 0.000, 0.000, 21:00:33.349, 1582471833349
37, 920.27, 656.80, 696.29, 222.33, 0.000, 0.000, 0.000, 21:00:33.350, 1582471833350
38, 938.05, 611.85, 707.33, 152.35, 0.000, 0.000, 0.000, 21:00:33.350, 1582471833350
39, 942.64, 829.04, 787.31, 303.64, 0.000, 0.000, 0.000, 21:00:33.364, 1582471833364
40, 994.97, 806.27, 834.77, 365.41, 0.000, 0.000, 0.000, 21:00:33.364, 1582471833364
41, 947.80, 692.63, 718.03, 244.98, 0.000, 0.000, 0.000, 21:00:33.380, 1582471833380
42, 910.03, 608.57, 660.15, 137.78, 0.000, 0.000, 0.000, 21:00:33.380, 1582471833380
43, 985.36, 846.34, 842.38, 327.01, 0.000, 0.000, 0.000, 21:00:33.380, 1582471833380
44, 1008.06, 808.07, 838.06, 363.42, 0.000, 0.000, 0.000, 21:00:33.380, 1582471833380
45, 923.40, 665.43, 700.55, 223.13, 0.000, 0.000, 0.000, 21:00:33.410, 1582471833410
46, 917.58, 608.97, 674.72, 136.59, 0.000, 0.000, 0.000, 21:00:33.410, 1582471833410
47, 977.48, 849.32, 827.76, 323.44, 0.000, 0.000, 0.000, 21:00:33.411, 1582471833411
48, 1002.22, 795.66, 832.11, 363.78, 0.000, 0.000, 0.000, 21:00:33.411, 1582471833411
49, 998.77, 721.94, 779.34, 260.78, 0.000, 0.000, 0.000, 21:00:33.411, 1582471833411
50, 908.32, 601.52, 667.10, 146.65, 0.000, 0.000, 0.000, 21:00:33.411, 1582471833411
51, 1002.95, 868.80, 841.35, 329.80, 0.000, 0.000, 0.000, 21:00:33.424, 1582471833424
52, 951.67, 773.19, 794.77, 337.93, 0.000, 0.000, 0.000, 21:00:33.424, 1582471833424
53, 946.61, 683.34, 741.41, 236.54, 0.000, 0.000, 0.000, 21:00:33.440, 1582471833440
54, 946.76, 627.23, 697.93, 153.77, 0.000, 0.000, 0.000, 21:00:33.440, 1582471833440
55, 975.47, 845.74, 802.69, 316.89, 0.000, 0.000, 0.000, 21:00:33.440, 1582471833440
56, 1018.57, 811.52, 870.39, 367.88, 0.000, 0.000, 0.000, 21:00:33.440, 1582471833440
57, 933.95, 667.49, 735.05, 231.94, 0.000, 0.000, 0.000, 21:00:33.454, 1582471833454
58, 927.95, 613.52, 679.15, 138.07, 0.000, 0.000, 0.000, 21:00:33.454, 1582471833454
59, 986.73, 851.36, 829.80, 321.11, 0.000, 0.000, 0.000, 21:00:33.469, 1582471833469
60, 999.59, 806.17, 840.10, 367.61, 0.000, 0.000, 0.000, 21:00:33.470, 1582471833470
61, 936.98, 666.24, 725.60, 221.07, 0.000, 0.000, 0.000, 21:00:33.470, 1582471833470
62, 910.21, 604.41, 649.43, 135.32, 0.000, 0.000, 0.000, 21:00:33.470, 1582471833470
63, 985.78, 854.48, 826.61, 329.68, 0.000, 0.000, 0.000, 21:00:33.484, 1582471833484
64, 994.15, 791.18, 856.83, 351.37, 0.000, 0.000, 0.000, 21:00:33.484, 1582471833484
65, 942.20, 674.40, 742.85, 234.31, 0.000, 0.000, 0.000, 21:00:33.500, 1582471833500
66, 927.10, 612.32, 674.34, 138.33, 0.000, 0.000, 0.000, 21:00:33.500, 1582471833500
67, 974.05, 843.14, 816.06, 310.27, 0.000, 0.000, 0.000, 21:00:33.500, 1582471833500
68, 991.08, 802.26, 835.96, 353.78, 0.000, 0.000, 0.000, 21:00:33.500, 1582471833500
69, 977.24, 707.48, 763.14, 252.68, 0.000, 0.000, 0.000, 21:00:33.514, 1582471833514
70, 953.55, 622.52, 709.07, 152.46, 0.000, 0.000, 0.000, 21:00:33.514, 1582471833514
71, 978.16, 837.95, 831.31, 314.85, 0.000, 0.000, 0.000, 21:00:33.530, 1582471833530
72, 994.71, 800.95, 843.46, 363.11, 0.000, 0.000, 0.000, 21:00:33.530, 1582471833530
73, 941.60, 658.94, 742.47, 220.52, 0.000, 0.000, 0.000, 21:00:33.530, 1582471833530
74, 922.63, 591.54, 680.95, 129.48, 0.000, 0.000, 0.000, 21:00:33.530, 1582471833530
75, 987.98, 841.66, 824.29, 308.16, 0.000, 0.000, 0.000, 21:00:33.544, 1582471833544
76, 968.76, 778.28, 806.59, 330.15, 0.000, 0.000, 0.000, 21:00:33.544, 1582471833544
77, 932.86, 660.90, 714.73, 208.63, 0.000, 0.000, 0.000, 21:00:33.559, 1582471833559
78, 908.98, 584.49, 669.21, 118.44, 0.000, 0.000, 0.000, 21:00:33.559, 1582471833559
79, 969.58, 828.62, 813.32, 314.68, 0.000, 0.000, 0.000, 21:00:33.560, 1582471833560
80, 983.81, 788.19, 821.01, 338.77, 0.000, 0.000, 0.000, 21:00:33.560, 1582471833560
81, 946.41, 666.90, 733.18, 218.65, 0.000, 0.000, 0.000, 21:00:33.574, 1582471833574
82, 917.05, 590.73, 662.52, 115.52, 0.000, 0.000, 0.000, 21:00:33.574, 1582471833574
83, 1015.90, 849.84, 862.26, 322.56, 0.000, 0.000, 0.000, 21:00:33.605, 1582471833605
84, 952.79, 768.15, 795.67, 330.15, 0.000, 0.000, 0.000, 21:00:33.605, 1582471833605
85, 958.11, 664.90, 744.79, 224.40, 0.000, 0.000, 0.000, 21:00:33.606, 1582471833606
86, 940.60, 604.01, 714.44, 133.14, 0.000, 0.000, 0.000, 21:00:33.606, 1582471833606
87, 1011.91, 852.88, 847.40, 321.54, 0.000, 0.000, 0.000, 21:00:33.607, 1582471833607
88, 953.82, 755.01, 794.34, 319.12, 0.000, 0.000, 0.000, 21:00:33.607, 1582471833607
89, 940.97, 653.55, 737.37, 215.89, 0.000, 0.000, 0.000, 21:00:33.620, 1582471833620
90, 950.21, 608.08, 706.04, 138.91, 0.000, 0.000, 0.000, 21:00:33.620, 1582471833620
91, 974.50, 822.11, 803.05, 300.07, 0.000, 0.000, 0.000, 21:00:33.620, 1582471833620
92, 980.62, 775.70, 827.18, 338.80, 0.000, 0.000, 0.000, 21:00:33.620, 1582471833620
93, 960.74, 677.27, 758.72, 235.46, 0.000, 0.000, 0.000, 21:00:33.634, 1582471833634
94, 932.91, 599.54, 681.88, 125.27, 0.000, 0.000, 0.000, 21:00:33.634, 1582471833634
95, 992.81, 841.96, 834.98, 314.27, 0.000, 0.000, 0.000, 21:00:33.649, 1582471833649
96, 961.93, 762.57, 804.37, 328.76, 0.000, 0.000, 0.000, 21:00:33.649, 1582471833649
97, 960.76, 666.21, 759.28, 227.34, 0.000, 0.000, 0.000, 21:00:33.650, 1582471833650
98, 934.60, 593.72, 686.22, 132.69, 0.000, 0.000, 0.000, 21:00:33.650, 1582471833650
99, 966.74, 817.76, 798.46, 301.16, 0.000, 0.000, 0.000, 21:00:33.664, 1582471833664
100, 975.13, 768.26, 810.25, 335.56, 0.000, 0.000, 0.000, 21:00:33.664, 1582471833664
101, 989.29, 683.97, 788.07, 245.57, 0.000, 0.000, 0.000, 21:00:33.680, 1582471833680
102, 952.05, 612.60, 696.68, 143.93, 0.000, 0.000, 0.000, 21:00:33.680, 1582471833680
103, 955.82, 802.10, 812.60, 288.85, 0.000, 0.000, 0.000, 21:00:33.680, 1582471833680
104, 983.52, 781.49, 810.83, 333.42, 0.000, 0.000, 0.000, 21:00:33.680, 1582471833680
105, 959.65, 675.60, 741.27, 229.10, 0.000, 0.000, 0.000, 21:00:33.710, 1582471833710
106, 925.95, 576.37, 677.75, 111.45, 0.000, 0.000, 0.000, 21:00:33.710, 1582471833710
107, 984.85, 802.40, 831.69, 281.99, 0.000, 0.000, 0.000, 21:00:33.711, 1582471833711
108, 958.04, 751.92, 796.16, 321.95, 0.000, 0.000, 0.000, 21:00:33.711, 1582471833711
109, 950.78, 650.17, 742.13, 217.48, 0.000, 0.000, 0.000, 21:00:33.712, 1582471833712
110, 945.26, 596.79, 693.76, 127.67, 0.000, 0.000, 0.000, 21:00:33.712, 1582471833712
111, 980.99, 824.69, 810.49, 299.67, 0.000, 0.000, 0.000, 21:00:33.724, 1582471833724
112, 989.42, 765.70, 833.26, 338.96, 0.000, 0.000, 0.000, 21:00:33.724, 1582471833724
113, 931.15, 640.18, 724.67, 210.44, 0.000, 0.000, 0.000, 21:00:33.740, 1582471833740
114, 948.76, 601.73, 699.93, 135.36, 0.000, 0.000, 0.000, 21:00:33.740, 1582471833740
115, 979.92, 813.63, 815.67, 298.65, 0.000, 0.000, 0.000, 21:00:33.740, 1582471833740
116, 995.68, 777.74, 829.94, 348.15, 0.000, 0.000, 0.000, 21:00:33.740, 1582471833740
117, 950.85, 649.32, 747.46, 223.97, 0.000, 0.000, 0.000, 21:00:33.754, 1582471833754
118, 919.95, 574.87, 656.08, 117.92, 0.000, 0.000, 0.000, 21:00:33.754, 1582471833754
119, 995.95, 827.89, 834.05, 305.41, 0.000, 0.000, 0.000, 21:00:33.769, 1582471833769
120, 979.89, 757.68, 828.09, 325.02, 0.000, 0.000, 0.000, 21:00:33.769, 1582471833769
121, 961.98, 647.42, 751.93, 218.00, 0.000, 0.000, 0.000, 21:00:33.770, 1582471833770
122, 925.36, 579.07, 665.29, 117.95, 0.000, 0.000, 0.000, 21:00:33.770, 1582471833770
123, 983.60, 816.61, 811.35, 297.15, 0.000, 0.000, 0.000, 21:00:33.784, 1582471833784
124, 980.39, 754.50, 814.40, 329.85, 0.000, 0.000, 0.000, 21:00:33.784, 1582471833784
125, 939.54, 631.77, 724.79, 222.79, 0.000, 0.000, 0.000, 21:00:33.800, 1582471833800
126, 921.67, 566.07, 671.37, 120.94, 0.000, 0.000, 0.000, 21:00:33.800, 1582471833800
127, 993.21, 805.94, 822.06, 297.13, 0.000, 0.000, 0.000, 21:00:33.800, 1582471833800
128, 984.09, 761.60, 816.14, 336.80, 0.000, 0.000, 0.000, 21:00:33.800, 1582471833800
129, 952.14, 639.64, 735.94, 212.51, 0.000, 0.000, 0.000, 21:00:33.815, 1582471833815
130, 948.96, 580.56, 696.71, 136.26, 0.000, 0.000, 0.000, 21:00:33.815, 1582471833815
131, 987.92, 801.59, 820.64, 299.62, 0.000, 0.000, 0.000, 21:00:33.829, 1582471833829
132, 1022.74, 792.30, 823.75, 346.59, 0.000, 0.000, 0.000, 21:00:33.829, 1582471833829
133, 974.27, 643.96, 759.32, 225.41, 0.000, 0.000, 0.000, 21:00:33.830, 1582471833830
134, 870.81, 535.53, 620.12, 95.60, 0.000, 0.000, 0.000, 21:00:33.830, 1582471833830
135, 964.48, 799.10, 790.60, 286.83, 0.000, 0.000, 0.000, 21:00:33.844, 1582471833844
136, 976.07, 748.82, 801.84, 324.85, 0.000, 0.000, 0.000, 21:00:33.844, 1582471833844
137, 923.92, 629.72, 685.15, 197.67, 0.000, 0.000, 0.000, 21:00:33.859, 1582471833859
138, 883.01, 534.58, 628.39, 91.80, 0.000, 0.000, 0.000, 21:00:33.859, 1582471833859
139, 965.38, 785.61, 800.76, 288.17, 0.000, 0.000, 0.000, 21:00:33.860, 1582471833860
140, 956.47, 739.27, 805.39, 331.54, 0.000, 0.000, 0.000, 21:00:33.860, 1582471833860
141, 902.02, 614.60, 680.20, 197.55, 0.000, 0.000, 0.000, 21:00:33.874, 1582471833874
142, 927.05, 572.51, 656.35, 125.87, 0.000, 0.000, 0.000, 21:00:33.874, 1582471833874
143, 954.41, 794.98, 761.73, 295.65, 0.000, 0.000, 0.000, 21:00:33.889, 1582471833889
144, 939.64, 736.05, 769.10, 324.85, 0.000, 0.000, 0.000, 21:00:33.889, 1582471833889
145, 931.49, 628.90, 714.52, 218.70, 0.000, 0.000, 0.000, 21:00:33.890, 1582471833890
146, 917.13, 575.99, 633.81, 122.36, 0.000, 0.000, 0.000, 21:00:33.890, 1582471833890
147, 1034.59, 851.32, 814.85, 330.76, 0.000, 0.000, 0.000, 21:00:33.904, 1582471833904
148, 913.82, 727.58, 724.15, 311.40, 0.000, 0.000, 0.000, 21:00:33.904, 1582471833904
149, 928.61, 632.79, 691.88, 218.01, 0.000, 0.000, 0.000, 21:00:33.919, 1582471833919
150, 869.41, 548.16, 575.96, 101.45, 0.000, 0.000, 0.000, 21:00:33.919, 1582471833919
151, 942.95, 781.35, 740.95, 277.98, 0.000, 0.000, 0.000, 21:00:33.920, 1582471833920
152, 956.90, 750.33, 781.78, 333.08, 0.000, 0.000, 0.000, 21:00:33.920, 1582471833920
153, 922.92, 621.26, 701.49, 215.06, 0.000, 0.000, 0.000, 21:00:33.934, 1582471833934
154, 897.52, 546.68, 614.71, 109.78, 0.000, 0.000, 0.000, 21:00:33.934, 1582471833934
155, 916.67, 773.55, 703.31, 271.89, 0.000, 0.000, 0.000, 21:00:33.950, 1582471833950
156, 929.65, 725.90, 751.58, 318.59, 0.000, 0.000, 0.000, 21:00:33.950, 1582471833950
157, 895.37, 610.63, 666.82, 197.41, 0.000, 0.000, 0.000, 21:00:33.950, 1582471833950
158, 826.90, 516.38, 525.13, 87.16, 0.000, 0.000, 0.000, 21:00:33.950, 1582471833950
159, 917.48, 774.18, 705.43, 282.31, 0.000, 0.000, 0.000, 21:00:33.964, 1582471833964
160, 941.92, 737.85, 742.42, 321.40, 0.000, 0.000, 0.000, 21:00:33.964, 1582471833964
161, 903.70, 620.98, 634.41, 201.20, 0.000, 0.000, 0.000, 21:00:33.979, 1582471833979
162, 884.66, 540.47, 572.78, 113.11, 0.000, 0.000, 0.000, 21:00:33.979, 1582471833979
163, 943.36, 766.37, 720.36, 285.20, 0.000, 0.000, 0.000, 21:00:33.980, 1582471833980
164, 931.69, 721.04, 720.32, 299.60, 0.000, 0.000, 0.000, 21:00:33.980, 1582471833980
165, 901.91, 611.47, 623.79, 182.33, 0.000, 0.000, 0.000, 21:00:33.994, 1582471833994
166, 890.17, 536.81, 567.94, 97.41, 0.000, 0.000, 0.000, 21:00:33.994, 1582471833994
167, 927.24, 752.61, 699.87, 271.79, 0.000, 0.000, 0.000, 21:00:34.009, 1582471834009
168, 945.79, 719.44, 743.92, 306.77, 0.000, 0.000, 0.000, 21:00:34.009, 1582471834009
169, 893.29, 591.09, 621.42, 174.35, 0.000, 0.000, 0.000, 21:00:34.011, 1582471834011
170, 874.72, 511.94, 580.04, 77.90, 0.000, 0.000, 0.000, 21:00:34.011, 1582471834011
171, 961.34, 782.54, 743.09, 279.77, 0.000, 0.000, 0.000, 21:00:34.024, 1582471834024
172, 912.36, 705.29, 687.88, 288.94, 0.000, 0.000, 0.000, 21:00:34.024, 1582471834024
173, 927.31, 615.69, 650.59, 193.51, 0.000, 0.000, 0.000, 21:00:34.039, 1582471834039
174, 863.33, 511.61, 536.42, 70.61, 0.000, 0.000, 0.000, 21:00:34.039, 1582471834039
175, 932.49, 737.29, 723.12, 267.15, 0.000, 0.000, 0.000, 21:00:34.040, 1582471834040
176, 944.26, 727.53, 725.10, 306.07, 0.000, 0.000, 0.000, 21:00:34.040, 1582471834040
177, 931.11, 620.70, 642.67, 185.91, 0.000, 0.000, 0.000, 21:00:34.054, 1582471834054
178, 855.75, 485.84, 545.80, 69.00, 0.000, 0.000, 0.000, 21:00:34.054, 1582471834054
179, 914.28, 744.89, 675.72, 257.25, 0.000, 0.000, 0.000, 21:00:34.070, 1582471834070
180, 972.54, 744.82, 746.96, 315.05, 0.000, 0.000, 0.000, 21:00:34.070, 1582471834070
181, 895.21, 580.58, 615.24, 175.70, 0.000, 0.000, 0.000, 21:00:34.070, 1582471834070
182, 854.34, 493.49, 537.37, 67.11, 0.000, 0.000, 0.000, 21:00:34.070, 1582471834070
183, 911.12, 744.13, 679.05, 272.43, 0.000, 0.000, 0.000, 21:00:34.084, 1582471834084
184, 923.23, 691.95, 692.74, 279.41, 0.000, 0.000, 0.000, 21:00:34.084, 1582471834084
185, 884.84, 575.90, 595.72, 165.50, 0.000, 0.000, 0.000, 21:00:34.099, 1582471834099
186, 863.96, 489.90, 554.58, 73.06, 0.000, 0.000, 0.000, 21:00:34.099, 1582471834099
187, 936.82, 732.67, 705.65, 269.47, 0.000, 0.000, 0.000, 21:00:34.100, 1582471834100
188, 954.82, 693.25, 725.74, 298.79, 0.000, 0.000, 0.000, 21:00:34.100, 1582471834100
189, 874.26, 551.90, 584.80, 159.26, 0.000, 0.000, 0.000, 21:00:34.114, 1582471834114
190, 844.97, 467.89, 525.25, 59.99, 0.000, 0.000, 0.000, 21:00:34.114, 1582471834114
191, 956.13, 734.24, 727.85, 281.84, 0.000, 0.000, 0.000, 21:00:34.130, 1582471834130
192, 894.45, 659.95, 674.38, 267.81, 0.000, 0.000, 0.000, 21:00:34.130, 1582471834130
193, 850.11, 525.03, 560.25, 129.62, 0.000, 0.000, 0.000, 21:00:34.130, 1582471834130
194, 870.14, 473.02, 541.26, 64.43, 0.000, 0.000, 0.000, 21:00:34.130, 1582471834130
195, 873.06, 667.70, 646.55, 218.78, 0.000, 0.000, 0.000, 21:00:34.144, 1582471834144
196, 935.22, 661.20, 711.47, 283.28, 0.000, 0.000, 0.000, 21:00:34.144, 1582471834144
197, 849.44, 520.98, 554.30, 130.36, 0.000, 0.000, 0.000, 21:00:34.160, 1582471834160
198, 838.50, 441.90, 522.88, 48.96, 0.000, 0.000, 0.000, 21:00:34.160, 1582471834160
199, 889.09, 676.74, 656.53, 222.90, 0.000, 0.000, 0.000, 21:00:34.160, 1582471834160
200, 930.91, 665.43, 713.33, 276.87, 0.000, 0.000, 0.000, 21:00:34.160, 1582471834160
0, 896.32, 555.94, 621.22, 167.37, 0.000, 0.000, 0.000, 21:00:34.174, 1582471834174
1, 843.26, 448.39, 530.15, 59.01, 0.000, 0.000, 0.000, 21:00:34.175, 1582471834175
2, 914.15, 694.71, 688.19, 242.85, 0.000, 0.000, 0.000, 21:00:34.175, 1582471834175
3, 939.37, 672.60, 725.25, 287.62, 0.000, 0.000, 0.000, 21:00:34.189, 1582471834189
4, 887.42, 537.10, 621.13, 162.61, 0.000, 0.000, 0.000, 21:00:34.189, 1582471834189
5, 866.27, 459.48, 559.52, 67.63, 0.000, 0.000, 0.000, 21:00:34.204, 1582471834204
6, 947.51, 712.28, 740.57, 269.40, 0.000, 0.000, 0.000, 21:00:34.204, 1582471834204
7, 959.16, 678.41, 741.32, 298.17, 0.000, 0.000, 0.000, 21:00:34.205, 1582471834205
8, 878.44, 521.15, 627.13, 154.08, 0.000, 0.000, 0.000, 21:00:34.205, 1582471834205
9, 871.30, 456.34, 575.71, 80.28, 0.000, 0.000, 0.000, 21:00:34.235, 1582471834235
10, 982.75, 730.70, 743.36, 283.50, 0.000, 0.000, 0.000, 21:00:34.235, 1582471834235
11, 899.05, 627.40, 717.76, 269.52, 0.000, 0.000, 0.000, 21:00:34.236, 1582471834236
12, 871.02, 516.52, 620.08, 157.55, 0.000, 0.000, 0.000, 21:00:34.236, 1582471834236
13, 882.81, 460.57, 579.24, 89.48, 0.000, 0.000, 0.000, 21:00:34.237, 1582471834237
14, 919.07, 682.92, 707.68, 252.80, 0.000, 0.000, 0.000, 21:00:34.237, 1582471834237
15, 915.33, 633.51, 723.34, 275.71, 0.000, 0.000, 0.000, 21:00:34.249, 1582471834249
16, 848.25, 493.15, 594.03, 143.48, 0.000, 0.000, 0.000, 21:00:34.249, 1582471834249
17, 872.93, 429.67, 585.21, 77.09, 0.000, 0.000, 0.000, 21:00:34.265, 1582471834265
18, 893.65, 656.83, 670.95, 248.99, 0.000, 0.000, 0.000, 21:00:34.265, 1582471834265
19, 893.25, 609.34, 688.47, 269.99, 0.000, 0.000, 0.000, 21:00:34.265, 1582471834265
20, 861.49, 481.98, 616.07, 156.02, 0.000, 0.000, 0.000, 21:00:34.265, 1582471834265
21, 822.65, 401.94, 537.08, 60.56, 0.000, 0.000, 0.000, 21:00:34.279, 1582471834279
22, 919.80, 662.62, 702.10, 256.92, 0.000, 0.000, 0.000, 21:00:34.279, 1582471834279
23, 964.51, 650.81, 758.52, 306.54, 0.000, 0.000, 0.000, 21:00:34.295, 1582471834295
24, 865.09, 486.37, 621.98, 161.87, 0.000, 0.000, 0.000, 21:00:34.295, 1582471834295
25, 818.47, 386.41, 527.00, 62.25, 0.000, 0.000, 0.000, 21:00:34.295, 1582471834295
26, 914.14, 663.21, 700.70, 257.07, 0.000, 0.000, 0.000, 21:00:34.295, 1582471834295
27, 920.98, 620.38, 723.32, 294.05, 0.000, 0.000, 0.000, 21:00:34.309, 1582471834309
28, 870.72, 481.61, 622.86, 169.36, 0.000, 0.000, 0.000, 21:00:34.309, 1582471834309
29, 816.29, 391.15, 506.73, 68.87, 0.000, 0.000, 0.000, 21:00:34.325, 1582471834325
30, 897.55, 640.30, 686.07, 254.59, 0.000, 0.000, 0.000, 21:00:34.325, 1582471834325
31, 897.16, 603.74, 686.36, 281.19, 0.000, 0.000, 0.000, 21:00:34.325, 1582471834325
32, 844.46, 466.56, 579.93, 152.17, 0.000, 0.000, 0.000, 21:00:34.325, 1582471834325
33, 845.88, 408.95, 542.95, 82.66, 0.000, 0.000, 0.000, 21:00:34.339, 1582471834339
34, 873.31, 629.72, 650.33, 241.85, 0.000, 0.000, 0.000, 21:00:34.339, 1582471834339
35, 916.01, 618.08, 703.42, 292.99, 0.000, 0.000, 0.000, 21:00:34.355, 1582471834355
36, 841.75, 469.61, 596.80, 160.55, 0.000, 0.000, 0.000, 21:00:34.355, 1582471834355
37, 825.14, 397.64, 523.23, 75.51, 0.000, 0.000, 0.000, 21:00:34.355, 1582471834355
38, 878.00, 623.64, 669.35, 244.51, 0.000, 0.000, 0.000, 21:00:34.355, 1582471834355
39, 887.29, 594.99, 682.10, 275.15, 0.000, 0.000, 0.000, 21:00:34.369, 1582471834369
40, 861.95, 473.77, 606.37, 161.71, 0.000, 0.000, 0.000, 21:00:34.369, 1582471834369
41, 852.58, 399.62, 567.77, 80.95, 0.000, 0.000, 0.000, 21:00:34.385, 1582471834385
42, 867.35, 634.84, 644.80, 246.76, 0.000, 0.000, 0.000, 21:00:34.385, 1582471834385
43, 867.62, 583.10, 652.69, 269.74, 0.000, 0.000, 0.000, 21:00:34.385, 1582471834385
44, 849.74, 476.91, 579.08, 156.09, 0.000, 0.000, 0.000, 21:00:34.385, 1582471834385
45, 810.84, 394.04, 503.52, 67.95, 0.000, 0.000, 0.000, 21:00:34.399, 1582471834399
46, 873.70, 633.41, 652.94, 250.80, 0.000, 0.000, 0.000, 21:00:34.399, 1582471834399
47, 881.17, 603.04, 666.96, 278.05, 0.000, 0.000, 0.000, 21:00:34.414, 1582471834414
48, 816.87, 453.42, 566.14, 148.96, 0.000, 0.000, 0.000, 21:00:34.414, 1582471834414
49, 805.92, 391.69, 497.47, 71.07, 0.000, 0.000, 0.000, 21:00:34.415, 1582471834415
50, 865.63, 636.47, 647.66, 250.16, 0.000, 0.000, 0.000, 21:00:34.415, 1582471834415
51, 874.93, 598.81, 666.81, 284.25, 0.000, 0.000, 0.000, 21:00:34.429, 1582471834429
52, 852.15, 493.77, 582.69, 169.83, 0.000, 0.000, 0.000, 21:00:34.429, 1582471834429
53, 814.34, 396.70, 521.77, 73.26, 0.000, 0.000, 0.000, 21:00:34.445, 1582471834445
54, 872.80, 641.62, 658.63, 253.16, 0.000, 0.000, 0.000, 21:00:34.445, 1582471834445
55, 866.28, 597.54, 663.23, 279.30, 0.000, 0.000, 0.000, 21:00:34.445, 1582471834445
56, 829.71, 482.44, 545.87, 159.86, 0.000, 0.000, 0.000, 21:00:34.445, 1582471834445
57, 831.89, 425.62, 523.15, 95.86, 0.000, 0.000, 0.000, 21:00:34.475, 1582471834475
58, 857.48, 624.86, 661.82, 252.49, 0.000, 0.000, 0.000, 21:00:34.475, 1582471834475
59, 860.24, 584.06, 654.13, 274.03, 0.000, 0.000, 0.000, 21:00:34.476, 1582471834476
60, 816.43, 463.21, 537.72, 151.89, 0.000, 0.000, 0.000, 21:00:34.476, 1582471834476
61, 803.52, 385.79, 506.21, 78.15, 0.000, 0.000, 0.000, 21:00:34.477, 1582471834477
62, 903.93, 673.66, 659.03, 282.20, 0.000, 0.000, 0.000, 21:00:34.477, 1582471834477
63, 878.11, 609.65, 677.65, 299.54, 0.000, 0.000, 0.000, 21:00:34.505, 1582471834505
64, 802.56, 448.01, 540.37, 148.82, 0.000, 0.000, 0.000, 21:00:34.505, 1582471834505
65, 763.08, 360.00, 464.84, 53.54, 0.000, 0.000, 0.000, 21:00:34.506, 1582471834506
66, 873.10, 654.37, 639.27, 267.66, 0.000, 0.000, 0.000, 21:00:34.506, 1582471834506
67, 841.61, 589.32, 625.19, 278.53, 0.000, 0.000, 0.000, 21:00:34.507, 1582471834507
68, 799.37, 454.87, 529.60, 149.33, 0.000, 0.000, 0.000, 21:00:34.507, 1582471834507
69, 807.48, 394.77, 499.99, 83.38, 0.000, 0.000, 0.000, 21:00:34.519, 1582471834519
70, 865.91, 636.27, 638.02, 264.07, 0.000, 0.000, 0.000, 21:00:34.519, 1582471834519
71, 876.94, 601.35, 654.95, 293.22, 0.000, 0.000, 0.000, 21:00:34.534, 1582471834534
72, 822.67, 473.18, 543.12, 164.47, 0.000, 0.000, 0.000, 21:00:34.534, 1582471834534
73, 779.17, 378.66, 456.00, 69.16, 0.000, 0.000, 0.000, 21:00:34.535, 1582471834535
74, 870.46, 636.07, 642.51, 256.22, 0.000, 0.000, 0.000, 21:00:34.535, 1582471834535
75, 829.47, 569.72, 585.56, 264.47, 0.000, 0.000, 0.000, 21:00:34.549, 1582471834549
76, 811.51, 462.58, 520.12, 154.51, 0.000, 0.000, 0.000, 21:00:34.549, 1582471834549
77, 785.17, 386.01, 445.67, 70.53, 0.000, 0.000, 0.000, 21:00:34.565, 1582471834565
78, 868.39, 647.00, 607.69, 256.90, 0.000, 0.000, 0.000, 21:00:34.565, 1582471834565
79, 898.82, 625.98, 657.68, 299.26, 0.000, 0.000, 0.000, 21:00:34.565, 1582471834565
80, 800.72, 449.53, 520.16, 140.90, 0.000, 0.000, 0.000, 21:00:34.565, 1582471834565
81, 766.07, 366.34, 457.07, 66.35, 0.000, 0.000, 0.000, 21:00:34.579, 1582471834579
82, 863.94, 624.73, 637.06, 253.85, 0.000, 0.000, 0.000, 21:00:34.579, 1582471834579
83, 858.43, 590.77, 620.64, 274.01, 0.000, 0.000, 0.000, 21:00:34.594, 1582471834594
84, 837.24, 478.30, 557.19, 158.76, 0.000, 0.000, 0.000, 21:00:34.594, 1582471834594
85, 803.25, 406.42, 485.12, 74.67, 0.000, 0.000, 0.000, 21:00:34.595, 1582471834595
86, 858.93, 629.38, 615.88, 244.26, 0.000, 0.000, 0.000, 21:00:34.595, 1582471834595
87, 856.15, 591.82, 636.14, 269.72, 0.000, 0.000, 0.000, 21:00:34.609, 1582471834609
88, 844.80, 486.16, 557.19, 166.43, 0.000, 0.000, 0.000, 21:00:34.609, 1582471834609
89, 819.61, 420.36, 511.12, 93.33, 0.000, 0.000, 0.000, 21:00:34.625, 1582471834625
90, 895.58, 667.69, 665.57, 277.33, 0.000, 0.000, 0.000, 21:00:34.625, 1582471834625
91, 863.80, 584.14, 659.11, 278.86, 0.000, 0.000, 0.000, 21:00:34.625, 1582471834625
92, 870.99, 502.07, 623.05, 180.29, 0.000, 0.000, 0.000, 21:00:34.625, 1582471834625
93, 866.95, 468.04, 544.04, 112.21, 0.000, 0.000, 0.000, 21:00:34.639, 1582471834639
94, 854.52, 645.78, 639.14, 255.42, 0.000, 0.000, 0.000, 21:00:34.639, 1582471834639
95, 929.15, 653.82, 708.76, 295.38, 0.000, 0.000, 0.000, 21:00:34.654, 1582471834654
96, 845.40, 503.88, 587.75, 172.23, 0.000, 0.000, 0.000, 21:00:34.654, 1582471834654
97, 825.88, 442.15, 524.16, 92.08, 0.000, 0.000, 0.000, 21:00:34.655, 1582471834655
98, 934.05, 710.42, 721.34, 287.60, 0.000, 0.000, 0.000, 21:00:34.655, 1582471834655
99, 937.71, 660.50, 747.27, 305.50, 0.000, 0.000, 0.000, 21:00:34.669, 1582471834669
100, 840.85, 511.29, 589.27, 154.41, 0.000, 0.000, 0.000, 21:00:34.669, 1582471834669
101, 834.50, 462.27, 555.91, 88.86, 0.000, 0.000, 0.000, 21:00:34.684, 1582471834684
102, 940.70, 717.06, 742.79, 270.96, 0.000, 0.000, 0.000, 21:00:34.684, 1582471834684
103, 918.00, 638.78, 731.90, 282.26, 0.000, 0.000, 0.000, 21:00:34.685, 1582471834685
104, 861.29, 515.29, 635.70, 157.22, 0.000, 0.000, 0.000, 21:00:34.685, 1582471834685
105, 838.63, 457.72, 575.69, 96.07, 0.000, 0.000, 0.000, 21:00:34.715, 1582471834715
106, 915.89, 686.21, 719.04, 271.71, 0.000, 0.000, 0.000, 21:00:34.715, 1582471834715
107, 912.15, 643.36, 738.55, 291.91, 0.000, 0.000, 0.000, 21:00:34.716, 1582471834716
108, 897.32, 546.03, 670.73, 195.05, 0.000, 0.000, 0.000, 21:00:34.716, 1582471834716
109, 859.33, 481.40, 618.01, 116.76, 0.000, 0.000, 0.000, 21:00:34.717, 1582471834717
110, 940.93, 701.43, 779.99, 295.88, 0.000, 0.000, 0.000, 21:00:34.717, 1582471834717
111, 891.29, 629.03, 697.92, 276.04, 0.000, 0.000, 0.000, 21:00:34.729, 1582471834729
112, 865.50, 525.72, 643.88, 180.90, 0.000, 0.000, 0.000, 21:00:34.729, 1582471834729
113, 831.98, 475.23, 571.61, 110.64, 0.000, 0.000, 0.000, 21:00:34.744, 1582471834744
114, 905.22, 693.86, 712.01, 275.86, 0.000, 0.000, 0.000, 21:00:34.744, 1582471834744
115, 909.84, 630.92, 718.93, 280.54, 0.000, 0.000, 0.000, 21:00:34.745, 1582471834745
116, 919.06, 570.13, 677.70, 204.40, 0.000, 0.000, 0.000, 21:00:34.745, 1582471834745
117, 883.03, 505.19, 647.34, 138.53, 0.000, 0.000, 0.000, 21:00:34.759, 1582471834759
118, 863.06, 646.49, 698.90, 251.62, 0.000, 0.000, 0.000, 21:00:34.759, 1582471834759
119, 911.27, 631.26, 731.52, 283.94, 0.000, 0.000, 0.000, 21:00:34.774, 1582471834774
120, 858.34, 524.48, 645.84, 175.07, 0.000, 0.000, 0.000, 21:00:34.774, 1582471834774
121, 847.70, 481.63, 612.27, 122.84, 0.000, 0.000, 0.000, 21:00:34.790, 1582471834790
122, 930.54, 700.46, 771.69, 296.79, 0.000, 0.000, 0.000, 21:00:34.790, 1582471834790
123, 872.56, 610.12, 724.76, 276.95, 0.000, 0.000, 0.000, 21:00:34.790, 1582471834790
124, 843.87, 513.93, 657.12, 181.31, 0.000, 0.000, 0.000, 21:00:34.790, 1582471834790
125, 822.82, 474.89, 592.47, 123.56, 0.000, 0.000, 0.000, 21:00:34.805, 1582471834805
126, 893.97, 674.06, 726.35, 280.54, 0.000, 0.000, 0.000, 21:00:34.805, 1582471834805
127, 963.08, 659.47, 803.92, 316.60, 0.000, 0.000, 0.000, 21:00:34.805, 1582471834805
128, 827.43, 512.91, 614.30, 172.93, 0.000, 0.000, 0.000, 21:00:34.805, 1582471834805
129, 827.12, 478.64, 599.87, 132.59, 0.000, 0.000, 0.000, 21:00:34.819, 1582471834819
130, 868.49, 664.02, 723.15, 281.09, 0.000, 0.000, 0.000, 21:00:34.819, 1582471834819
131, 896.03, 618.18, 768.26, 294.73, 0.000, 0.000, 0.000, 21:00:34.835, 1582471834835
132, 854.53, 516.20, 683.70, 196.64, 0.000, 0.000, 0.000, 21:00:34.835, 1582471834835
133, 803.32, 456.53, 591.87, 119.19, 0.000, 0.000, 0.000, 21:00:34.835, 1582471834835
134, 897.05, 678.02, 744.57, 293.10, 0.000, 0.000, 0.000, 21:00:34.835, 1582471834835
135, 939.10, 639.27, 807.53, 311.68, 0.000, 0.000, 0.000, 21:00:34.849, 1582471834849
136, 845.97, 513.85, 649.39, 182.16, 0.000, 0.000, 0.000, 21:00:34.849, 1582471834849
137, 849.97, 496.28, 625.78, 145.14, 0.000, 0.000, 0.000, 21:00:34.864, 1582471834864
138, 896.48, 678.37, 752.69, 305.39, 0.000, 0.000, 0.000, 21:00:34.864, 1582471834864
139, 867.47, 587.60, 734.80, 279.89, 0.000, 0.000, 0.000, 21:00:34.865, 1582471834865
140, 846.03, 510.08, 672.43, 185.50, 0.000, 0.000, 0.000, 21:00:34.865, 1582471834865
141, 839.31, 477.90, 635.58, 147.44, 0.000, 0.000, 0.000, 21:00:34.879, 1582471834879
142, 887.47, 654.88, 759.12, 295.56, 0.000, 0.000, 0.000, 21:00:34.879, 1582471834879
143, 865.78, 573.75, 747.71, 276.64, 0.000, 0.000, 0.000, 21:00:34.895, 1582471834895
144, 871.95, 514.52, 724.35, 205.82, 0.000, 0.000, 0.000, 21:00:34.895, 1582471834895
145, 809.93, 454.54, 617.03, 127.17, 0.000, 0.000, 0.000, 21:00:34.895, 1582471834895
146, 873.32, 645.72, 715.43, 276.07, 0.000, 0.000, 0.000, 21:00:34.895, 1582471834895
147, 904.19, 598.61, 780.60, 300.95, 0.000, 0.000, 0.000, 21:00:34.909, 1582471834909
148, 862.68, 511.00, 685.02, 203.14, 0.000, 0.000, 0.000, 21:00:34.909, 1582471834909
149, 798.95, 452.32, 607.63, 142.90, 0.000, 0.000, 0.000, 21:00:34.925, 1582471834925
150, 867.73, 644.24, 727.95, 294.25, 0.000, 0.000, 0.000, 21:00:34.925, 1582471834925
151, 877.38, 576.48, 746.71, 273.58, 0.000, 0.000, 0.000, 21:00:34.925, 1582471834925
152, 846.44, 488.92, 689.21, 187.43, 0.000, 0.000, 0.000, 21:00:34.925, 1582471834925
153, 806.18, 466.48, 603.62, 144.38, 0.000, 0.000, 0.000, 21:00:34.939, 1582471834939
154, 900.97, 661.49, 738.81, 285.95, 0.000, 0.000, 0.000, 21:00:34.939, 1582471834939
155, 916.48, 590.33, 799.32, 288.79, 0.000, 0.000, 0.000, 21:00:34.954, 1582471834954
156, 840.41, 500.55, 643.78, 184.44, 0.000, 0.000, 0.000, 21:00:34.954, 1582471834954
157, 834.99, 477.88, 624.67, 159.09, 0.000, 0.000, 0.000, 21:00:34.955, 1582471834955
158, 889.93, 629.45, 771.79, 289.99, 0.000, 0.000, 0.000, 21:00:34.955, 1582471834955
159, 864.14, 565.37, 715.67, 264.99, 0.000, 0.000, 0.000, 21:00:34.969, 1582471834969
160, 843.99, 486.68, 683.08, 182.67, 0.000, 0.000, 0.000, 21:00:34.969, 1582471834969
161, 887.71, 503.47, 703.84, 191.24, 0.000, 0.000, 0.000, 21:00:34.985, 1582471834985
162, 948.78, 672.79, 821.51, 332.53, 0.000, 0.000, 0.000, 21:00:34.985, 1582471834985
163, 840.26, 532.74, 678.96, 241.48, 0.000, 0.000, 0.000, 21:00:34.985, 1582471834985
164, 820.15, 462.29, 635.85, 168.82, 0.000, 0.000, 0.000, 21:00:34.985, 1582471834985
165, 868.79, 499.85, 689.62, 184.41, 0.000, 0.000, 0.000, 21:00:34.999, 1582471834999
166, 949.09, 681.28, 818.76, 326.84, 0.000, 0.000, 0.000, 21:00:34.999, 1582471834999
167, 900.96, 564.27, 753.99, 269.09, 0.000, 0.000, 0.000, 21:00:35.015, 1582471835015
168, 877.70, 514.69, 688.97, 201.99, 0.000, 0.000, 0.000, 21:00:35.015, 1582471835015
169, 880.27, 526.55, 688.83, 205.03, 0.000, 0.000, 0.000, 21:00:35.015, 1582471835015
170, 959.66, 680.05, 842.66, 331.02, 0.000, 0.000, 0.000, 21:00:35.015, 1582471835015
171, 883.69, 570.64, 720.90, 263.40, 0.000, 0.000, 0.000, 21:00:35.029, 1582471835029
172, 854.98, 497.16, 673.31, 186.38, 0.000, 0.000, 0.000, 21:00:35.029, 1582471835029
173, 894.10, 548.49, 706.66, 213.85, 0.000, 0.000, 0.000, 21:00:35.044, 1582471835044
174, 896.27, 645.91, 772.78, 304.63, 0.000, 0.000, 0.000, 21:00:35.044, 1582471835044
175, 877.90, 545.20, 728.70, 248.75, 0.000, 0.000, 0.000, 21:00:35.045, 1582471835045
176, 857.93, 508.88, 683.67, 189.87, 0.000, 0.000, 0.000, 21:00:35.045, 1582471835045
177, 879.92, 549.25, 715.81, 206.40, 0.000, 0.000, 0.000, 21:00:35.059, 1582471835059
178, 957.51, 684.01, 857.12, 333.40, 0.000, 0.000, 0.000, 21:00:35.059, 1582471835059
179, 935.47, 579.56, 778.14, 260.38, 0.000, 0.000, 0.000, 21:00:35.074, 1582471835074
180, 874.60, 517.07, 722.80, 190.97, 0.000, 0.000, 0.000, 21:00:35.074, 1582471835074
181, 927.18, 598.56, 747.34, 237.15, 0.000, 0.000, 0.000, 21:00:35.075, 1582471835075
182, 955.08, 713.51, 810.54, 348.85, 0.000, 0.000, 0.000, 21:00:35.075, 1582471835075
183, 914.07, 559.03, 782.38, 245.58, 0.000, 0.000, 0.000, 21:00:35.089, 1582471835089
184, 940.19, 570.28, 765.87, 229.33, 0.000, 0.000, 0.000, 21:00:35.089, 1582471835089
185, 897.02, 590.23, 750.63, 236.88, 0.000, 0.000, 0.000, 21:00:35.104, 1582471835104
186, 990.81, 723.29, 887.31, 362.04, 0.000, 0.000, 0.000, 21:00:35.104, 1582471835104
187, 948.89, 569.15, 813.51, 242.15, 0.000, 0.000, 0.000, 21:00:35.105, 1582471835105
188, 907.59, 568.52, 748.54, 195.36, 0.000, 0.000, 0.000, 21:00:35.105, 1582471835105
189, 941.70, 702.76, 798.60, 269.40, 0.000, 0.000, 0.000, 21:00:35.119, 1582471835119
190, 977.88, 765.00, 887.58, 352.33, 0.000, 0.000, 0.000, 21:00:35.119, 1582471835119
191, 934.75, 604.99, 790.48, 227.97, 0.000, 0.000, 0.000, 21:00:35.134, 1582471835134
192, 907.78, 593.93, 753.66, 194.53, 0.000, 0.000, 0.000, 21:00:35.134, 1582471835134
193, 931.43, 670.45, 807.33, 271.96, 0.000, 0.000, 0.000, 21:00:35.135, 1582471835135
194, 995.80, 768.33, 907.41, 365.42, 0.000, 0.000, 0.000, 21:00:35.135, 1582471835135
195, 972.30, 598.60, 840.40, 228.53, 0.000, 0.000, 0.000, 21:00:35.149, 1582471835149
196, 946.18, 611.50, 772.66, 206.02, 0.000, 0.000, 0.000, 21:00:35.149, 1582471835149
197, 951.31, 686.75, 858.57, 284.10, 0.000, 0.000, 0.000, 21:00:35.166, 1582471835166
198, 1033.22, 778.42, 944.96, 398.74, 0.000, 0.000, 0.000, 21:00:35.166, 1582471835166
199, 952.70, 575.03, 787.51, 214.00, 0.000, 0.000, 0.000, 21:00:35.166, 1582471835166
200, 959.42, 586.38, 826.22, 208.62, 0.000, 0.000, 0.000, 21:00:35.166, 1582471835166
0, 1032.61, 735.73, 952.58, 347.21, 0.000, 0.000, 0.000, 21:00:35.179, 1582471835179
1, 1033.74, 747.45, 965.27, 376.07, 0.000, 0.000, 0.000, 21:00:35.180, 1582471835180
2, 978.06, 542.49, 850.78, 192.87, 0.000, 0.000, 0.000, 21:00:35.180, 1582471835180
3, 967.54, 585.95, 814.25, 196.61, 0.000, 0.000, 0.000, 21:00:35.194, 1582471835194
4, 980.70, 700.79, 922.86, 307.98, 0.000, 0.000, 0.000, 21:00:35.194, 1582471835194
5, 1070.47, 800.74, 1017.53, 422.91, 0.000, 0.000, 0.000, 21:00:35.210, 1582471835210
6, 992.97, 580.43, 855.19, 179.30, 0.000, 0.000, 0.000, 21:00:35.210, 1582471835210
7, 945.76, 599.31, 829.22, 186.79, 0.000, 0.000, 0.000, 21:00:35.210, 1582471835210
8, 995.55, 775.57, 946.13, 358.47, 0.000, 0.000, 0.000, 21:00:35.210, 1582471835210
9, 1056.64, 811.86, 1011.46, 421.85, 0.000, 0.000, 0.000, 21:00:35.224, 1582471835224
10, 965.62, 537.84, 841.30, 168.01, 0.000, 0.000, 0.000, 21:00:35.224, 1582471835224
11, 987.00, 614.75, 894.20, 204.03, 0.000, 0.000, 0.000, 21:00:35.239, 1582471835239
12, 1082.28, 837.69, 1051.60, 414.56, 0.000, 0.000, 0.000, 21:00:35.239, 1582471835239
13, 1111.12, 841.62, 1078.48, 452.26, 0.000, 0.000, 0.000, 21:00:35.240, 1582471835240
14, 1033.07, 573.07, 904.36, 158.72, 0.000, 0.000, 0.000, 21:00:35.240, 1582471835240
15, 973.20, 605.80, 876.11, 169.31, 0.000, 0.000, 0.000, 21:00:35.270, 1582471835270
16, 1089.80, 843.34, 1084.76, 404.95, 0.000, 0.000, 0.000, 21:00:35.270, 1582471835270
17, 1139.48, 855.23, 1110.05, 450.44, 0.000, 0.000, 0.000, 21:00:35.271, 1582471835271
18, 1034.56, 552.40, 876.07, 147.02, 0.000, 0.000, 0.000, 21:00:35.271, 1582471835271
19, 1026.56, 619.24, 963.86, 197.20, 0.000, 0.000, 0.000, 21:00:35.271, 1582471835271
20, 1128.63, 888.97, 1117.59, 433.93, 0.000, 0.000, 0.000, 21:00:35.271, 1582471835271
21, 1102.46, 826.72, 1104.22, 442.82, 0.000, 0.000, 0.000, 21:00:35.284, 1582471835284
22, 1003.95, 483.46, 912.56, 107.09, 0.000, 0.000, 0.000, 21:00:35.284, 1582471835284
23, 1032.17, 602.43, 973.47, 173.92, 0.000, 0.000, 0.000, 21:00:35.299, 1582471835299
24, 1111.09, 874.37, 1145.59, 423.66, 0.000, 0.000, 0.000, 21:00:35.299, 1582471835299
25, 1172.28, 851.34, 1194.26, 468.82, 0.000, 0.000, 0.000, 21:00:35.300, 1582471835300
26, 1026.32, 482.80, 926.60, 107.34, 0.000, 0.000, 0.000, 21:00:35.300, 1582471835300
27, 1038.71, 617.90, 952.49, 163.75, 0.000, 0.000, 0.000, 21:00:35.314, 1582471835314
28, 1172.24, 904.16, 1239.34, 453.33, 0.000, 0.000, 0.000, 21:00:35.314, 1582471835314
29, 1195.77, 871.15, 1208.55, 473.10, 0.000, 0.000, 0.000, 21:00:35.345, 1582471835345
30, 1070.04, 547.32, 955.01, 120.89, 0.000, 0.000, 0.000, 21:00:35.345, 1582471835345
31, 1044.37, 648.83, 997.50, 167.04, 0.000, 0.000, 0.000, 21:00:35.346, 1582471835346
32, 1113.69, 902.99, 1171.82, 422.38, 0.000, 0.000, 0.000, 21:00:35.346, 1582471835346
33, 1220.14, 897.65, 1274.80, 488.67, 0.000, 0.000, 0.000, 21:00:35.346, 1582471835346
34, 1082.87, 542.34, 1002.29, 109.38, 0.000, 0.000, 0.000, 21:00:35.346, 1582471835346
35, 1099.65, 674.57, 1050.99, 187.13, 0.000, 0.000, 0.000, 21:00:35.359, 1582471835359
36, 1189.62, 966.27, 1236.97, 477.86, 0.000, 0.000, 0.000, 21:00:35.359, 1582471835359
37, 1289.14, 935.39, 1310.15, 511.89, 0.000, 0.000, 0.000, 21:00:35.374, 1582471835374
38, 1095.10, 530.23, 1018.65, 96.57, 0.000, 0.000, 0.000, 21:00:35.374, 1582471835374
39, 1107.26, 667.26, 1090.95, 181.84, 0.000, 0.000, 0.000, 21:00:35.375, 1582471835375
40, 1172.60, 958.21, 1260.37, 462.78, 0.000, 0.000, 0.000, 21:00:35.375, 1582471835375
41, 1237.42, 904.68, 1278.10, 490.08, 0.000, 0.000, 0.000, 21:00:35.390, 1582471835390
42, 1048.35, 478.69, 975.54, 49.24, 0.000, 0.000, 0.000, 21:00:35.390, 1582471835390
43, 1096.19, 646.29, 1083.43, 156.36, 0.000, 0.000, 0.000, 21:00:35.390, 1582471835390
44, 1241.14, 1048.17, 1331.83, 542.30, 0.000, 0.000, 0.000, 21:00:35.390, 1582471835390
45, 1306.89, 992.08, 1380.16, 587.47, 0.000, 0.000, 0.000, 21:00:35.404, 1582471835404
46, 1073.99, 462.54, 965.58, 46.46, 0.000, 0.000, 0.000, 21:00:35.404, 1582471835404
47, 1105.04, 647.76, 1073.21, 144.64, 0.000, 0.000, 0.000, 21:00:35.420, 1582471835420
48, 1303.25, 1133.20, 1423.09, 610.29, 0.000, 0.000, 0.000, 21:00:35.420, 1582471835420
49, 1300.29, 995.26, 1391.48, 605.51, 0.000, 0.000, 0.000, 21:00:35.420, 1582471835420
50, 1057.21, 402.25, 944.21, -16.55, 0.000, 0.000, 0.000, 21:00:35.420, 1582471835420
51, 1035.72, 581.93, 998.28, 80.86, 0.000, 0.000, 0.000, 21:00:35.434, 1582471835434
52, 1262.87, 1106.92, 1397.24, 591.60, 0.000, 0.000, 0.000, 21:00:35.434, 1582471835434
53, 1323.34, 999.43, 1442.36, 633.18, 0.000, 0.000, 0.000, 21:00:35.450, 1582471835450
54, 1044.61, 358.95, 905.25, -59.37, 0.000, 0.000, 0.000, 21:00:35.450, 1582471835450
55, 1045.75, 566.88, 983.39, 56.00, 0.000, 0.000, 0.000, 21:00:35.450, 1582471835450
56, 1303.46, 1156.43, 1464.10, 644.31, 0.000, 0.000, 0.000, 21:00:35.450, 1582471835450
57, 1281.07, 980.01, 1390.99, 634.39, 0.000, 0.000, 0.000, 21:00:35.464, 1582471835464
58, 987.42, 294.35, 828.70, -109.02, 0.000, 0.000, 0.000, 21:00:35.464, 1582471835464
59, 1012.34, 543.73, 944.63, 38.25, 0.000, 0.000, 0.000, 21:00:35.480, 1582471835480
60, 1243.24, 1135.01, 1397.52, 617.92, 0.000, 0.000, 0.000, 21:00:35.480, 1582471835480
61, 1365.22, 1025.10, 1480.85, 665.46, 0.000, 0.000, 0.000, 21:00:35.480, 1582471835480
62, 994.32, 289.43, 839.96, -113.44, 0.000, 0.000, 0.000, 21:00:35.480, 1582471835480
63, 1005.08, 536.69, 935.06, 28.09, 0.000, 0.000, 0.000, 21:00:35.494, 1582471835494
64, 1241.75, 1146.92, 1393.15, 628.02, 0.000, 0.000, 0.000, 21:00:35.494, 1582471835494
65, 1325.91, 1003.77, 1444.79, 660.04, 0.000, 0.000, 0.000, 21:00:35.510, 1582471835510
66, 1077.75, 326.00, 932.87, -84.33, 0.000, 0.000, 0.000, 21:00:35.510, 1582471835510
67, 940.78, 481.52, 866.50, 3.95, 0.000, 0.000, 0.000, 21:00:35.510, 1582471835510
68, 1225.93, 1137.76, 1374.49, 638.53, 0.000, 0.000, 0.000, 21:00:35.510, 1582471835510
69, 1316.59, 998.88, 1440.29, 666.98, 0.000, 0.000, 0.000, 21:00:35.524, 1582471835524
70, 990.92, 244.92, 828.82, -135.27, 0.000, 0.000, 0.000, 21:00:35.524, 1582471835524
71, 972.93, 502.97, 890.52, 5.17, 0.000, 0.000, 0.000, 21:00:35.539, 1582471835539
72, 1237.16, 1161.18, 1390.19, 659.68, 0.000, 0.000, 0.000, 21:00:35.539, 1582471835539
73, 1312.93, 988.43, 1438.75, 657.05, 0.000, 0.000, 0.000, 21:00:35.540, 1582471835540
74, 947.21, 201.17, 776.63, -172.93, 0.000, 0.000, 0.000, 21:00:35.540, 1582471835540
75, 984.09, 508.27, 902.99, 10.06, 0.000, 0.000, 0.000, 21:00:35.554, 1582471835554
76, 1227.01, 1153.31, 1384.12, 673.64, 0.000, 0.000, 0.000, 21:00:35.554, 1582471835554
77, 1346.62, 1014.16, 1441.71, 699.82, 0.000, 0.000, 0.000, 21:00:35.569, 1582471835569
78, 1007.94, 270.13, 770.19, -151.44, 0.000, 0.000, 0.000, 21:00:35.569, 1582471835569
79, 989.14, 496.97, 951.54, 7.14, 0.000, 0.000, 0.000, 21:00:35.570, 1582471835570
80, 1270.82, 1194.85, 1438.73, 688.00, 0.000, 0.000, 0.000, 21:00:35.570, 1582471835570
81, 1303.99, 997.15, 1407.40, 664.60, 0.000, 0.000, 0.000, 21:00:35.584, 1582471835584
82, 944.36, 199.13, 733.53, -204.57, 0.000, 0.000, 0.000, 21:00:35.584, 1582471835584
83, 980.64, 503.10, 893.56, -11.77, 0.000, 0.000, 0.000, 21:00:35.599, 1582471835599
84, 1277.27, 1198.06, 1448.96, 677.83, 0.000, 0.000, 0.000, 21:00:35.599, 1582471835599
85, 1301.20, 993.52, 1403.17, 665.94, 0.000, 0.000, 0.000, 21:00:35.600, 1582471835600
86, 939.85, 184.92, 730.54, -202.75, 0.000, 0.000, 0.000, 21:00:35.600, 1582471835600
87, 982.59, 500.23, 915.90, -6.98, 0.000, 0.000, 0.000, 21:00:35.614, 1582471835614
88, 1233.46, 1178.27, 1402.84, 663.95, 0.000, 0.000, 0.000, 21:00:35.614, 1582471835614
89, 1315.02, 996.55, 1396.92, 675.83, 0.000, 0.000, 0.000, 21:00:35.630, 1582471835630
90, 935.23, 170.36, 755.69, -217.85, 0.000, 0.000, 0.000, 21:00:35.630, 1582471835630
91, 958.14, 480.54, 883.70, -22.22, 0.000, 0.000, 0.000, 21:00:35.630, 1582471835630
92, 1240.32, 1202.03, 1383.73, 679.95, 0.000, 0.000, 0.000, 21:00:35.630, 1582471835630
93, 1313.83, 1001.59, 1396.50, 670.66, 0.000, 0.000, 0.000, 21:00:35.644, 1582471835644
94, 959.27, 180.13, 760.72, -209.08, 0.000, 0.000, 0.000, 21:00:35.644, 1582471835644
95, 1000.91, 522.43, 893.48, -3.83, 0.000, 0.000, 0.000, 21:00:35.660, 1582471835660
96, 1269.43, 1221.16, 1426.95, 695.64, 0.000, 0.000, 0.000, 21:00:35.660, 1582471835660
97, 1269.83, 961.78, 1393.85, 650.82, 0.000, 0.000, 0.000, 21:00:35.660, 1582471835660
98, 916.20, 152.80, 717.00, -236.98, 0.000, 0.000, 0.000, 21:00:35.660, 1582471835660
99, 999.21, 511.07, 935.75, -4.48, 0.000, 0.000, 0.000, 21:00:35.674, 1582471835674
100, 1258.66, 1201.86, 1426.42, 687.10, 0.000, 0.000, 0.000, 21:00:35.674, 1582471835674
101, 1402.97, 1050.60, 1489.38, 719.85, 0.000, 0.000, 0.000, 21:00:35.690, 1582471835690
102, 927.17, 158.66, 733.94, -229.88, 0.000, 0.000, 0.000, 21:00:35.690, 1582471835690
103, 967.63, 494.99, 870.26, -18.84, 0.000, 0.000, 0.000, 21:00:35.690, 1582471835690
104, 1279.70, 1209.08, 1432.12, 694.32, 0.000, 0.000, 0.000, 21:00:35.690, 1582471835690
105, 1347.41, 1015.93, 1437.99, 697.52, 0.000, 0.000, 0.000, 21:00:35.704, 1582471835704
106, 1028.32, 222.03, 824.73, -180.35, 0.000, 0.000, 0.000, 21:00:35.704, 1582471835704
107, 1011.72, 517.90, 920.11, -7.00, 0.000, 0.000, 0.000, 21:00:35.720, 1582471835720
108, 1300.21, 1215.40, 1470.72, 704.27, 0.000, 0.000, 0.000, 21:00:35.720, 1582471835720
109, 1361.18, 1020.32, 1460.19, 714.74, 0.000, 0.000, 0.000, 21:00:35.720, 1582471835720
110, 956.36, 173.34, 753.85, -222.39, 0.000, 0.000, 0.000, 21:00:35.720, 1582471835720
111, 1033.92, 529.63, 961.00, 2.37, 0.000, 0.000, 0.000, 21:00:35.734, 1582471835734
112, 1316.33, 1226.63, 1479.54, 715.69, 0.000, 0.000, 0.000, 21:00:35.734, 1582471835734
113, 1349.26, 1012.25, 1458.26, 692.27, 0.000, 0.000, 0.000, 21:00:35.750, 1582471835750
114, 949.20, 169.92, 750.21, -223.57, 0.000, 0.000, 0.000, 21:00:35.750, 1582471835750
115, 1068.46, 540.48, 1014.66, 20.03, 0.000, 0.000, 0.000, 21:00:35.750, 1582471835750
116, 1303.05, 1231.84, 1468.94, 707.20, 0.000, 0.000, 0.000, 21:00:35.750, 1582471835750
117, 1331.81, 1007.16, 1443.98, 678.84, 0.000, 0.000, 0.000, 21:00:35.764, 1582471835764
118, 973.36, 180.90, 776.21, -219.42, 0.000, 0.000, 0.000, 21:00:35.764, 1582471835764
119, 1025.16, 528.03, 966.78, 3.16, 0.000, 0.000, 0.000, 21:00:35.780, 1582471835780
120, 1246.26, 1190.82, 1412.76, 667.17, 0.000, 0.000, 0.000, 21:00:35.780, 1582471835780
121, 1321.74, 1003.05, 1444.86, 671.86, 0.000, 0.000, 0.000, 21:00:35.780, 1582471835780
122, 920.22, 163.03, 714.06, -245.65, 0.000, 0.000, 0.000, 21:00:35.780, 1582471835780
123, 961.09, 492.29, 888.45, -28.96, 0.000, 0.000, 0.000, 21:00:35.794, 1582471835794
124, 1247.76, 1198.53, 1423.59, 664.53, 0.000, 0.000, 0.000, 21:00:35.794, 1582471835794
125, 1302.85, 1002.90, 1423.81, 670.18, 0.000, 0.000, 0.000, 21:00:35.825, 1582471835825
126, 993.42, 229.74, 778.83, -198.26, 0.000, 0.000, 0.000, 21:00:35.825, 1582471835825
127, 915.67, 457.86, 862.40, -54.29, 0.000, 0.000, 0.000, 21:00:35.826, 1582471835826
128, 1264.07, 1193.32, 1440.89, 668.18, 0.000, 0.000, 0.000, 21:00:35.826, 1582471835826
129, 1272.06, 989.32, 1382.96, 662.31, 0.000, 0.000, 0.000, 21:00:35.827, 1582471835827
130, 858.01, 145.26, 684.79, -257.34, 0.000, 0.000, 0.000, 21:00:35.827, 1582471835827
131, 889.64, 455.09, 816.19, -58.88, 0.000, 0.000, 0.000, 21:00:35.839, 1582471835839
132, 1148.60, 1111.81, 1321.72, 596.14, 0.000, 0.000, 0.000, 21:00:35.839, 1582471835839
133, 1240.34, 976.94, 1356.75, 639.67, 0.000, 0.000, 0.000, 21:00:35.840, 1582471835840
134, 900.78, 212.53, 716.78, -195.57, 0.000, 0.000, 0.000, 21:00:35.840, 1582471835840
135, 921.52, 488.52, 846.42, -28.85, 0.000, 0.000, 0.000, 21:00:35.854, 1582471835854
136, 1187.49, 1098.61, 1330.51, 570.19, 0.000, 0.000, 0.000, 21:00:35.854, 1582471835854
137, 1204.54, 934.77, 1311.50, 596.87, 0.000, 0.000, 0.000, 21:00:35.870, 1582471835870
138, 938.82, 334.92, 777.79, -69.49, 0.000, 0.000, 0.000, 21:00:35.870, 1582471835870
139, 931.02, 540.11, 884.61, 57.92, 0.000, 0.000, 0.000, 21:00:35.870, 1582471835870
140, 1095.88, 960.59, 1173.29, 452.29, 0.000, 0.000, 0.000, 21:00:35.870, 1582471835870
141, 1157.73, 860.51, 1215.64, 495.16, 0.000, 0.000, 0.000, 21:00:35.884, 1582471835884
142, 934.02, 383.03, 834.44, -10.13, 0.000, 0.000, 0.000, 21:00:35.884, 1582471835884
143, 937.19, 559.37, 889.73, 85.12, 0.000, 0.000, 0.000, 21:00:35.900, 1582471835900
144, 1032.82, 863.06, 1091.08, 393.52, 0.000, 0.000, 0.000, 21:00:35.900, 1582471835900
145, 1136.68, 835.99, 1153.64, 451.78, 0.000, 0.000, 0.000, 21:00:35.900, 1582471835900
146, 870.63, 390.09, 794.21, 9.36, 0.000, 0.000, 0.000, 21:00:35.900, 1582471835900
147, 928.72, 556.07, 899.19, 106.85, 0.000, 0.000, 0.000, 21:00:35.914, 1582471835914
148, 1001.98, 818.29, 1040.03, 357.46, 0.000, 0.000, 0.000, 21:00:35.914, 1582471835914
149, 1036.78, 764.20, 1063.68, 393.07, 0.000, 0.000, 0.000, 21:00:35.929, 1582471835929
150, 899.26, 447.51, 816.01, 68.05, 0.000, 0.000, 0.000, 21:00:35.929, 1582471835929
151, 898.71, 554.45, 826.34, 105.78, 0.000, 0.000, 0.000, 21:00:35.930, 1582471835930
152, 993.44, 780.90, 986.12, 324.21, 0.000, 0.000, 0.000, 21:00:35.930, 1582471835930
153, 1035.76, 772.43, 1018.80, 371.62, 0.000, 0.000, 0.000, 21:00:35.944, 1582471835944
154, 920.10, 491.68, 818.78, 105.37, 0.000, 0.000, 0.000, 21:00:35.944, 1582471835944
155, 895.39, 557.92, 826.07, 133.19, 0.000, 0.000, 0.000, 21:00:35.960, 1582471835960
156, 959.25, 731.90, 950.66, 309.29, 0.000, 0.000, 0.000, 21:00:35.960, 1582471835960
157, 977.50, 713.02, 959.45, 344.65, 0.000, 0.000, 0.000, 21:00:35.960, 1582471835960
158, 875.66, 464.21, 773.86, 106.22, 0.000, 0.000, 0.000, 21:00:35.960, 1582471835960
159, 887.26, 531.86, 805.88, 137.74, 0.000, 0.000, 0.000, 21:00:35.974, 1582471835974
160, 938.25, 686.98, 902.01, 286.15, 0.000, 0.000, 0.000, 21:00:35.974, 1582471835974
161, 963.78, 704.51, 909.76, 345.41, 0.000, 0.000, 0.000, 21:00:35.990, 1582471835990
162, 882.46, 479.71, 764.30, 136.61, 0.000, 0.000, 0.000, 21:00:35.990, 1582471835990
163, 895.61, 549.34, 738.65, 143.60, 0.000, 0.000, 0.000, 21:00:35.990, 1582471835990
164, 897.70, 639.66, 873.21, 264.47, 0.000, 0.000, 0.000, 21:00:35.990, 1582471835990
165, 871.95, 641.03, 845.28, 304.49, 0.000, 0.000, 0.000, 21:00:36.004, 1582471836004
166, 815.21, 437.82, 699.31, 109.47, 0.000, 0.000, 0.000, 21:00:36.004, 1582471836004
167, 811.68, 478.29, 688.79, 114.13, 0.000, 0.000, 0.000, 21:00:36.035, 1582471836035
168, 826.72, 581.95, 756.70, 230.81, 0.000, 0.000, 0.000, 21:00:36.035, 1582471836035
169, 875.95, 634.60, 806.47, 292.83, 0.000, 0.000, 0.000, 21:00:36.036, 1582471836036
170, 792.40, 437.85, 662.21, 118.98, 0.000, 0.000, 0.000, 21:00:36.036, 1582471836036
171, 767.33, 448.07, 635.94, 101.68, 0.000, 0.000, 0.000, 21:00:36.037, 1582471836037
172, 797.64, 554.45, 703.72, 196.87, 0.000, 0.000, 0.000, 21:00:36.037, 1582471836037
173, 863.33, 631.40, 804.67, 284.15, 0.000, 0.000, 0.000, 21:00:36.050, 1582471836050
174, 823.78, 470.35, 713.45, 145.27, 0.000, 0.000, 0.000, 21:00:36.050, 1582471836050
175, 739.63, 457.51, 573.62, 99.33, 0.000, 0.000, 0.000, 21:00:36.050, 1582471836050
176, 888.94, 606.87, 740.10, 232.83, 0.000, 0.000, 0.000, 21:00:36.050, 1582471836050
177, 875.36, 663.89, 724.01, 296.90, 0.000, 0.000, 0.000, 21:00:36.064, 1582471836064
178, 795.66, 462.61, 632.84, 175.43, 0.000, 0.000, 0.000, 21:00:36.064, 1582471836064
179, 727.47, 432.73, 556.18, 115.47, 0.000, 0.000, 0.000, 21:00:36.080, 1582471836080
180, 751.84, 505.66, 599.89, 185.61, 0.000, 0.000, 0.000, 21:00:36.080, 1582471836080
181, 806.83, 607.19, 670.88, 274.57, 0.000, 0.000, 0.000, 21:00:36.080, 1582471836080
182, 765.79, 469.60, 582.96, 166.61, 0.000, 0.000, 0.000, 21:00:36.080, 1582471836080
183, 737.02, 444.95, 535.47, 123.04, 0.000, 0.000, 0.000, 21:00:36.094, 1582471836094
184, 752.16, 487.46, 556.33, 167.22, 0.000, 0.000, 0.000, 21:00:36.094, 1582471836094
185, 786.04, 590.09, 623.08, 267.35, 0.000, 0.000, 0.000, 21:00:36.109, 1582471836109
186, 751.37, 460.61, 550.95, 171.79, 0.000, 0.000, 0.000, 21:00:36.109, 1582471836109
187, 725.77, 434.42, 506.37, 131.84, 0.000, 0.000, 0.000, 21:00:36.110, 1582471836110
188, 724.84, 473.09, 509.14, 151.40, 0.000, 0.000, 0.000, 21:00:36.110, 1582471836110
189, 767.92, 588.48, 591.39, 271.74, 0.000, 0.000, 0.000, 21:00:36.124, 1582471836124
190, 727.08, 456.51, 514.09, 166.67, 0.000, 0.000, 0.000, 21:00:36.124, 1582471836124
191, 690.54, 411.34, 453.47, 112.90, 0.000, 0.000, 0.000, 21:00:36.140, 1582471836140
192, 708.69, 451.72, 493.09, 146.55, 0.000, 0.000, 0.000, 21:00:36.140, 1582471836140
193, 845.04, 612.23, 698.52, 296.99, 0.000, 0.000, 0.000, 21:00:36.140, 1582471836140
194, 702.83, 458.26, 491.67, 168.13, 0.000, 0.000, 0.000, 21:00:36.140, 1582471836140
195, 738.32, 454.15, 438.63, 138.11, 0.000, 0.000, 0.000, 21:00:36.154, 1582471836154
196, 765.36, 503.15, 472.09, 168.10, 0.000, 0.000, 0.000, 21:00:36.154, 1582471836154
197, 757.80, 575.36, 561.09, 251.49, 0.000, 0.000, 0.000, 21:00:36.170, 1582471836170
198, 724.57, 451.13, 512.52, 185.53, 0.000, 0.000, 0.000, 21:00:36.170, 1582471836170
199, 791.96, 464.51, 526.74, 164.25, 0.000, 0.000, 0.000, 21:00:36.170, 1582471836170
200, 665.35, 400.67, 411.92, 122.95, 0.000, 0.000, 0.000, 21:00:36.170, 1582471836170
0, 756.65, 561.92, 586.43, 270.28, 0.000, 0.000, 0.000, 21:00:36.185, 1582471836185
1, 714.98, 461.84, 472.47, 188.08, 0.000, 0.000, 0.000, 21:00:36.185, 1582471836185
2, 678.27, 395.27, 417.44, 104.61, 0.000, 0.000, 0.000, 21:00:36.185, 1582471836185
3, 667.00, 411.17, 388.62, 103.33, 0.000, 0.000, 0.000, 21:00:36.199, 1582471836199
4, 734.98, 569.99, 486.14, 223.17, 0.000, 0.000, 0.000, 21:00:36.199, 1582471836199
5, 684.26, 453.85, 432.07, 174.50, 0.000, 0.000, 0.000, 21:00:36.214, 1582471836214
6, 653.33, 399.74, 378.02, 101.33, 0.000, 0.000, 0.000, 21:00:36.214, 1582471836214
7, 657.69, 401.80, 372.38, 95.29, 0.000, 0.000, 0.000, 21:00:36.215, 1582471836215
8, 708.42, 566.55, 460.69, 224.14, 0.000, 0.000, 0.000, 21:00:36.215, 1582471836215
9, 681.15, 480.79, 425.05, 184.28, 0.000, 0.000, 0.000, 21:00:36.229, 1582471836229
10, 659.99, 408.28, 355.85, 106.88, 0.000, 0.000, 0.000, 21:00:36.229, 1582471836229
11, 665.52, 425.52, 365.48, 114.71, 0.000, 0.000, 0.000, 21:00:36.244, 1582471836244
12, 790.34, 629.95, 537.03, 275.07, 0.000, 0.000, 0.000, 21:00:36.244, 1582471836244
13, 699.48, 519.53, 401.46, 218.28, 0.000, 0.000, 0.000, 21:00:36.245, 1582471836245
14, 600.03, 411.25, 273.21, 101.86, 0.000, 0.000, 0.000, 21:00:36.245, 1582471836245
15, 655.37, 434.37, 328.11, 109.05, 0.000, 0.000, 0.000, 21:00:36.259, 1582471836259
16, 706.07, 592.52, 411.61, 239.29, 0.000, 0.000, 0.000, 21:00:36.259, 1582471836259
17, 675.01, 504.88, 411.02, 207.75, 0.000, 0.000, 0.000, 21:00:36.275, 1582471836275
18, 642.84, 418.51, 362.88, 139.00, 0.000, 0.000, 0.000, 21:00:36.275, 1582471836275
19, 608.28, 390.17, 316.17, 97.42, 0.000, 0.000, 0.000, 21:00:36.275, 1582471836275
20, 673.07, 571.10, 429.41, 241.70, 0.000, 0.000, 0.000, 21:00:36.275, 1582471836275
21, 704.96, 526.94, 444.96, 243.46, 0.000, 0.000, 0.000, 21:00:36.289, 1582471836289
22, 631.70, 421.08, 331.63, 131.76, 0.000, 0.000, 0.000, 21:00:36.289, 1582471836289
23, 596.31, 393.15, 296.49, 95.96, 0.000, 0.000, 0.000, 21:00:36.305, 1582471836305
24, 675.50, 582.47, 430.71, 237.01, 0.000, 0.000, 0.000, 21:00:36.305, 1582471836305
25, 662.27, 508.25, 400.20, 234.95, 0.000, 0.000, 0.000, 21:00:36.305, 1582471836305
26, 621.28, 423.56, 324.38, 131.76, 0.000, 0.000, 0.000, 21:00:36.305, 1582471836305
27, 602.90, 400.30, 293.92, 83.32, 0.000, 0.000, 0.000, 21:00:36.319, 1582471836319
28, 684.09, 585.42, 429.73, 245.48, 0.000, 0.000, 0.000, 21:00:36.319, 1582471836319
29, 694.79, 534.68, 439.76, 250.16, 0.000, 0.000, 0.000, 21:00:36.334, 1582471836334
30, 665.04, 447.21, 385.47, 147.69, 0.000, 0.000, 0.000, 21:00:36.334, 1582471836334
31, 615.34, 394.20, 294.55, 80.30, 0.000, 0.000, 0.000, 21:00:36.335, 1582471836335
32, 731.66, 625.97, 471.98, 253.32, 0.000, 0.000, 0.000, 21:00:36.335, 1582471836335
33, 726.60, 561.07, 480.22, 255.17, 0.000, 0.000, 0.000, 21:00:36.349, 1582471836349
34, 646.20, 444.14, 325.78, 128.76, 0.000, 0.000, 0.000, 21:00:36.349, 1582471836349
35, 618.67, 394.87, 305.05, 77.51, 0.000, 0.000, 0.000, 21:00:36.380, 1582471836380
36, 652.14, 568.09, 422.71, 227.11, 0.000, 0.000, 0.000, 21:00:36.380, 1582471836380
37, 670.98, 523.09, 435.34, 228.50, 0.000, 0.000, 0.000, 21:00:36.381, 1582471836381
38, 637.75, 432.33, 357.85, 121.19, 0.000, 0.000, 0.000, 21:00:36.381, 1582471836381
39, 612.23, 390.05, 317.80, 83.57, 0.000, 0.000, 0.000, 21:00:36.382, 1582471836382
40, 673.38, 576.86, 439.46, 215.95, 0.000, 0.000, 0.000, 21:00:36.382, 1582471836382
41, 705.35, 547.55, 474.54, 231.54, 0.000, 0.000, 0.000, 21:00:36.394, 1582471836394
42, 647.55, 439.29, 371.87, 127.65, 0.000, 0.000, 0.000, 21:00:36.394, 1582471836394
43, 626.74, 384.00, 330.38, 55.85, 0.000, 0.000, 0.000, 21:00:36.395, 1582471836395
44, 706.54, 603.38, 479.82, 238.77, 0.000, 0.000, 0.000, 21:00:36.395, 1582471836395
45, 750.34, 576.22, 533.27, 271.35, 0.000, 0.000, 0.000, 21:00:36.409, 1582471836409
46, 685.70, 456.82, 407.43, 142.41, 0.000, 0.000, 0.000, 21:00:36.409, 1582471836409
47, 663.54, 428.13, 344.36, 85.15, 0.000, 0.000, 0.000, 21:00:36.425, 1582471836425
48, 743.68, 625.34, 514.54, 250.40, 0.000, 0.000, 0.000, 21:00:36.425, 1582471836425
49, 746.12, 583.75, 507.97, 266.69, 0.000, 0.000, 0.000, 21:00:36.425, 1582471836425
50, 725.80, 489.56, 458.13, 169.45, 0.000, 0.000, 0.000, 21:00:36.425, 1582471836425
51, 643.15, 403.94, 355.54, 74.24, 0.000, 0.000, 0.000, 21:00:36.439, 1582471836439
52, 768.21, 635.51, 537.34, 254.89, 0.000, 0.000, 0.000, 21:00:36.439, 1582471836439
53, 720.67, 567.47, 511.44, 255.90, 0.000, 0.000, 0.000, 21:00:36.454, 1582471836454
54, 656.34, 436.28, 403.81, 124.68, 0.000, 0.000, 0.000, 21:00:36.454, 1582471836454
55, 644.57, 396.69, 361.18, 68.96, 0.000, 0.000, 0.000, 21:00:36.455, 1582471836455
56, 741.85, 632.81, 514.70, 249.54, 0.000, 0.000, 0.000, 21:00:36.455, 1582471836455
57, 742.67, 577.08, 541.75, 253.08, 0.000, 0.000, 0.000, 21:00:36.469, 1582471836469
58, 742.53, 483.82, 505.43, 164.22, 0.000, 0.000, 0.000, 21:00:36.469, 1582471836469
59, 654.34, 402.62, 368.10, 72.16, 0.000, 0.000, 0.000, 21:00:36.485, 1582471836485
60, 739.60, 628.43, 502.71, 237.08, 0.000, 0.000, 0.000, 21:00:36.485, 1582471836485
61, 765.62, 599.44, 565.52, 267.33, 0.000, 0.000, 0.000, 21:00:36.485, 1582471836485
62, 703.32, 473.30, 458.63, 148.59, 0.000, 0.000, 0.000, 21:00:36.485, 1582471836485
63, 711.39, 447.43, 422.22, 92.47, 0.000, 0.000, 0.000, 21:00:36.499, 1582471836499
64, 758.28, 655.47, 531.59, 245.88, 0.000, 0.000, 0.000, 21:00:36.499, 1582471836499
65, 732.81, 576.11, 538.23, 254.00, 0.000, 0.000, 0.000, 21:00:36.515, 1582471836515
66, 714.84, 481.34, 461.74, 143.97, 0.000, 0.000, 0.000, 21:00:36.515, 1582471836515
67, 693.13, 414.69, 424.89, 79.99, 0.000, 0.000, 0.000, 21:00:36.515, 1582471836515
68, 762.69, 624.96, 573.08, 237.06, 0.000, 0.000, 0.000, 21:00:36.515, 1582471836515
69, 766.37, 601.90, 595.36, 272.99, 0.000, 0.000, 0.000, 21:00:36.529, 1582471836529
70, 724.56, 468.59, 493.44, 142.63, 0.000, 0.000, 0.000, 21:00:36.529, 1582471836529
71, 702.37, 423.81, 408.53, 74.48, 0.000, 0.000, 0.000, 21:00:36.545, 1582471836545
72, 786.85, 667.26, 590.04, 255.64, 0.000, 0.000, 0.000, 21:00:36.545, 1582471836545
73, 795.33, 635.81, 596.36, 278.75, 0.000, 0.000, 0.000, 21:00:36.545, 1582471836545
74, 732.12, 508.65, 484.02, 150.92, 0.000, 0.000, 0.000, 21:00:36.545, 1582471836545
75, 691.92, 423.15, 445.68, 76.28, 0.000, 0.000, 0.000, 21:00:36.559, 1582471836559
76, 774.14, 633.47, 590.07, 230.75, 0.000, 0.000, 0.000, 21:00:36.559, 1582471836559
77, 744.40, 607.31, 567.35, 256.21, 0.000, 0.000, 0.000, 21:00:36.574, 1582471836574
78, 689.49, 462.36, 476.50, 127.15, 0.000, 0.000, 0.000, 21:00:36.574, 1582471836574
79, 687.59, 415.21, 434.87, 63.84, 0.000, 0.000, 0.000, 21:00:36.575, 1582471836575
80, 779.00, 655.32, 600.29, 241.02, 0.000, 0.000, 0.000, 21:00:36.575, 1582471836575
81, 819.52, 654.15, 649.40, 296.39, 0.000, 0.000, 0.000, 21:00:36.589, 1582471836589
82, 753.35, 509.71, 533.90, 159.80, 0.000, 0.000, 0.000, 21:00:36.589, 1582471836589
83, 729.11, 444.06, 480.20, 82.68, 0.000, 0.000, 0.000, 21:00:36.604, 1582471836604
84, 807.86, 676.99, 624.89, 251.85, 0.000, 0.000, 0.000, 21:00:36.604, 1582471836604
85, 819.43, 642.90, 675.05, 293.54, 0.000, 0.000, 0.000, 21:00:36.605, 1582471836605
86, 775.35, 519.80, 577.71, 168.02, 0.000, 0.000, 0.000, 21:00:36.605, 1582471836605
87, 748.17, 454.85, 509.32, 90.54, 0.000, 0.000, 0.000, 21:00:36.619, 1582471836619
88, 914.93, 733.48, 783.17, 312.00, 0.000, 0.000, 0.000, 21:00:36.619, 1582471836619
89, 916.57, 708.49, 750.12, 344.45, 0.000, 0.000, 0.000, 21:00:36.635, 1582471836635
90, 760.77, 523.82, 536.04, 164.42, 0.000, 0.000, 0.000, 21:00:36.635, 1582471836635
91, 809.57, 486.53, 566.23, 115.97, 0.000, 0.000, 0.000, 21:00:36.635, 1582471836635
92, 866.78, 711.46, 717.36, 276.04, 0.000, 0.000, 0.000, 21:00:36.635, 1582471836635
93, 853.06, 671.88, 723.36, 311.20, 0.000, 0.000, 0.000, 21:00:36.649, 1582471836649
94, 767.84, 511.24, 567.22, 158.54, 0.000, 0.000, 0.000, 21:00:36.649, 1582471836649
95, 836.07, 496.90, 601.46, 127.29, 0.000, 0.000, 0.000, 21:00:36.664, 1582471836664
96, 848.94, 702.23, 679.97, 272.93, 0.000, 0.000, 0.000, 21:00:36.664, 1582471836664
97, 883.69, 689.54, 731.87, 317.78, 0.000, 0.000, 0.000, 21:00:36.665, 1582471836665
98, 766.58, 500.40, 590.84, 159.10, 0.000, 0.000, 0.000, 21:00:36.665, 1582471836665
99, 793.21, 477.19, 541.54, 101.12, 0.000, 0.000, 0.000, 21:00:36.679, 1582471836679
100, 896.69, 719.33, 722.41, 288.08, 0.000, 0.000, 0.000, 21:00:36.679, 1582471836679
101, 867.01, 674.00, 729.24, 324.93, 0.000, 0.000, 0.000, 21:00:36.694, 1582471836694
102, 852.41, 566.27, 661.26, 198.12, 0.000, 0.000, 0.000, 21:00:36.694, 1582471836694
103, 853.45, 513.38, 624.48, 127.66, 0.000, 0.000, 0.000, 21:00:36.695, 1582471836695
104, 867.47, 707.60, 706.59, 268.81, 0.000, 0.000, 0.000, 21:00:36.695, 1582471836695
105, 881.80, 686.65, 757.32, 297.70, 0.000, 0.000, 0.000, 21:00:36.709, 1582471836709
106, 836.28, 546.49, 667.53, 184.82, 0.000, 0.000, 0.000, 21:00:36.709, 1582471836709
107, 795.79, 469.01, 568.05, 90.33, 0.000, 0.000, 0.000, 21:00:36.724, 1582471836724
108, 902.90, 719.94, 753.10, 300.59, 0.000, 0.000, 0.000, 21:00:36.724, 1582471836724
109, 927.38, 706.61, 810.78, 331.37, 0.000, 0.000, 0.000, 21:00:36.725, 1582471836725
110, 821.04, 550.86, 619.30, 179.70, 0.000, 0.000, 0.000, 21:00:36.725, 1582471836725
111, 814.55, 473.90, 589.28, 98.39, 0.000, 0.000, 0.000, 21:00:36.739, 1582471836739
112, 899.52, 726.34, 726.18, 270.66, 0.000, 0.000, 0.000, 21:00:36.739, 1582471836739
113, 916.90, 709.41, 800.67, 322.21, 0.000, 0.000, 0.000, 21:00:36.770, 1582471836770
114, 840.70, 567.08, 640.23, 176.45, 0.000, 0.000, 0.000, 21:00:36.770, 1582471836770
115, 827.80, 490.76, 607.43, 106.40, 0.000, 0.000, 0.000, 21:00:36.771, 1582471836771
116, 881.37, 706.68, 743.87, 268.49, 0.000, 0.000, 0.000, 21:00:36.771, 1582471836771
117, 913.93, 717.88, 783.07, 329.94, 0.000, 0.000, 0.000, 21:00:36.772, 1582471836772
118, 848.95, 563.73, 665.14, 179.14, 0.000, 0.000, 0.000, 21:00:36.772, 1582471836772
119, 850.63, 504.76, 638.21, 115.69, 0.000, 0.000, 0.000, 21:00:36.785, 1582471836785
120, 912.63, 722.26, 774.68, 282.13, 0.000, 0.000, 0.000, 21:00:36.785, 1582471836785
121, 923.75, 712.33, 803.77, 320.20, 0.000, 0.000, 0.000, 21:00:36.785, 1582471836785
122, 878.41, 578.09, 697.35, 181.82, 0.000, 0.000, 0.000, 21:00:36.785, 1582471836785
123, 886.19, 523.37, 660.78, 121.43, 0.000, 0.000, 0.000, 21:00:36.799, 1582471836799
124, 894.74, 708.70, 755.08, 239.69, 0.000, 0.000, 0.000, 21:00:36.799, 1582471836799
125, 942.82, 730.27, 810.00, 336.55, 0.000, 0.000, 0.000, 21:00:36.815, 1582471836815
126, 851.62, 578.00, 630.40, 164.53, 0.000, 0.000, 0.000, 21:00:36.815, 1582471836815
127, 795.07, 455.85, 584.55, 80.22, 0.000, 0.000, 0.000, 21:00:36.815, 1582471836815
128, 873.15, 705.13, 742.25, 259.71, 0.000, 0.000, 0.000, 21:00:36.815, 1582471836815
129, 908.45, 715.58, 778.71, 324.48, 0.000, 0.000, 0.000, 21:00:36.829, 1582471836829
130, 895.28, 581.78, 732.49, 199.05, 0.000, 0.000, 0.000, 21:00:36.829, 1582471836829
131, 849.01, 494.63, 617.51, 105.91, 0.000, 0.000, 0.000, 21:00:36.845, 1582471836845
132, 906.88, 741.46, 739.13, 274.25, 0.000, 0.000, 0.000, 21:00:36.845, 1582471836845
133, 915.94, 707.03, 807.76, 324.88, 0.000, 0.000, 0.000, 21:00:36.845, 1582471836845
134, 882.56, 585.88, 718.43, 205.42, 0.000, 0.000, 0.000, 21:00:36.845, 1582471836845
135, 836.13, 490.86, 612.83, 105.13, 0.000, 0.000, 0.000, 21:00:36.859, 1582471836859
136, 868.73, 704.17, 718.66, 254.66, 0.000, 0.000, 0.000, 21:00:36.859, 1582471836859
137, 951.10, 742.96, 831.53, 348.66, 0.000, 0.000, 0.000, 21:00:36.874, 1582471836874
138, 926.52, 625.49, 725.51, 224.04, 0.000, 0.000, 0.000, 21:00:36.874, 1582471836874
139, 831.16, 482.47, 611.10, 91.44, 0.000, 0.000, 0.000, 21:00:36.875, 1582471836875
140, 878.48, 709.06, 728.76, 253.06, 0.000, 0.000, 0.000, 21:00:36.875, 1582471836875
141, 926.44, 726.63, 812.85, 331.50, 0.000, 0.000, 0.000, 21:00:36.889, 1582471836889
142, 912.58, 608.86, 711.46, 199.75, 0.000, 0.000, 0.000, 21:00:36.889, 1582471836889
143, 858.97, 492.45, 663.53, 112.63, 0.000, 0.000, 0.000, 21:00:36.905, 1582471836905
144, 901.83, 736.23, 768.90, 277.40, 0.000, 0.000, 0.000, 21:00:36.905, 1582471836905
145, 923.40, 732.81, 808.33, 335.68, 0.000, 0.000, 0.000, 21:00:36.905, 1582471836905
146, 869.44, 570.47, 700.90, 196.64, 0.000, 0.000, 0.000, 21:00:36.905, 1582471836905
147, 832.89, 479.36, 624.74, 97.42, 0.000, 0.000, 0.000, 21:00:36.935, 1582471836935
148, 905.30, 732.77, 769.34, 272.38, 0.000, 0.000, 0.000, 21:00:36.935, 1582471836935
149, 916.77, 731.30, 800.72, 347.58, 0.000, 0.000, 0.000, 21:00:36.936, 1582471836936
150, 885.89, 588.32, 708.45, 191.50, 0.000, 0.000, 0.000, 21:00:36.936, 1582471836936
151, 846.79, 495.13, 619.87, 89.55, 0.000, 0.000, 0.000, 21:00:36.937, 1582471836937
152, 920.65, 751.71, 768.38, 278.92, 0.000, 0.000, 0.000, 21:00:36.937, 1582471836937
153, 955.35, 762.37, 848.95, 359.59, 0.000, 0.000, 0.000, 21:00:36.949, 1582471836949
154, 918.03, 612.82, 749.23, 217.64, 0.000, 0.000, 0.000, 21:00:36.949, 1582471836949
155, 882.83, 509.37, 682.71, 120.44, 0.000, 0.000, 0.000, 21:00:36.964, 1582471836964
156, 963.52, 776.60, 818.46, 304.23, 0.000, 0.000, 0.000, 21:00:36.964, 1582471836964
157, 919.16, 742.57, 794.06, 328.40, 0.000, 0.000, 0.000, 21:00:36.965, 1582471836965
158, 859.59, 573.62, 695.02, 191.58, 0.000, 0.000, 0.000, 21:00:36.965, 1582471836965
159, 850.81, 497.74, 651.67, 101.74, 0.000, 0.000, 0.000, 21:00:36.979, 1582471836979
160, 924.26, 746.92, 788.47, 278.56, 0.000, 0.000, 0.000, 21:00:36.979, 1582471836979
161, 939.25, 751.27, 832.74, 354.16, 0.000, 0.000, 0.000, 21:00:36.994, 1582471836994
162, 888.49, 597.72, 720.72, 200.83, 0.000, 0.000, 0.000, 21:00:36.994, 1582471836994
163, 848.69, 488.99, 626.75, 94.93, 0.000, 0.000, 0.000, 21:00:36.995, 1582471836995
164, 905.35, 734.18, 772.44, 262.16, 0.000, 0.000, 0.000, 21:00:36.995, 1582471836995
165, 977.42, 779.57, 869.04, 376.35, 0.000, 0.000, 0.000, 21:00:37.009, 1582471837009
166, 883.92, 592.83, 705.67, 200.51, 0.000, 0.000, 0.000, 21:00:37.009, 1582471837009
167, 837.02, 483.62, 624.42, 99.69, 0.000, 0.000, 0.000, 21:00:37.024, 1582471837024
168, 905.89, 721.65, 766.60, 266.77, 0.000, 0.000, 0.000, 21:00:37.024, 1582471837024
169, 965.41, 777.37, 834.38, 363.30, 0.000, 0.000, 0.000, 21:00:37.025, 1582471837025
170, 911.43, 600.34, 753.17, 213.12, 0.000, 0.000, 0.000, 21:00:37.025, 1582471837025
171, 877.30, 519.88, 636.07, 116.34, 0.000, 0.000, 0.000, 21:00:37.039, 1582471837039
172, 897.55, 717.56, 757.08, 265.68, 0.000, 0.000, 0.000, 21:00:37.039, 1582471837039
173, 948.39, 750.04, 820.72, 345.81, 0.000, 0.000, 0.000, 21:00:37.054, 1582471837054
174, 869.60, 571.41, 680.13, 186.42, 0.000, 0.000, 0.000, 21:00:37.054, 1582471837054
175, 829.07, 468.21, 614.41, 81.28, 0.000, 0.000, 0.000, 21:00:37.055, 1582471837055
176, 892.84, 711.82, 746.68, 259.89, 0.000, 0.000, 0.000, 21:00:37.055, 1582471837055
177, 928.35, 733.02, 812.62, 336.89, 0.000, 0.000, 0.000, 21:00:37.069, 1582471837069
178, 965.19, 621.64, 809.50, 230.75, 0.000, 0.000, 0.000, 21:00:37.069, 1582471837069
179, 869.66, 517.27, 608.60, 106.26, 0.000, 0.000, 0.000, 21:00:37.084, 1582471837084
180, 880.38, 710.67, 717.17, 247.41, 0.000, 0.000, 0.000, 21:00:37.084, 1582471837084
181, 948.25, 739.62, 831.54, 344.01, 0.000, 0.000, 0.000, 21:00:37.085, 1582471837085
182, 989.83, 647.42, 784.05, 246.73, 0.000, 0.000, 0.000, 21:00:37.085, 1582471837085
183, 833.29, 485.39, 584.75, 88.32, 0.000, 0.000, 0.000, 21:00:37.099, 1582471837099
184, 916.95, 732.62, 742.30, 263.23, 0.000, 0.000, 0.000, 21:00:37.099, 1582471837099
185, 969.14, 769.38, 812.83, 354.32, 0.000, 0.000, 0.000, 21:00:37.114, 1582471837114
186, 912.21, 601.32, 734.86, 216.28, 0.000, 0.000, 0.000, 21:00:37.114, 1582471837114
187, 877.97, 510.51, 628.51, 111.17, 0.000, 0.000, 0.000, 21:00:37.115, 1582471837115
