%OpenBCI Raw EEG Data
%Number of channels = 4
%Sample Rate = 200.0 Hz
%First Column = SampleIndex
%Last Column = Timestamp 
%Other Columns = EEG data in microvolts followed by Accel Data (in G) interleaved with Aux Data
71, 620.87, 1474.95, 622.97, 318.26, 0.000, 0.000, 0.000, 19:43:05.961, 1582467185961
72, 599.78, 1511.49, 615.61, 312.40, 0.000, 0.000, 0.000, 19:43:05.961, 1582467185961
73, 595.52, 1490.63, 612.58, 299.28, 0.000, 0.000, 0.000, 19:43:05.976, 1582467185976
74, 569.58, 1421.37, 585.35, 286.01, 0.000, 0.000, 0.000, 19:43:05.976, 1582467185976
75, 590.50, 1463.05, 604.27, 298.69, 0.000, 0.000, 0.000, 19:43:05.977, 1582467185977
76, 596.18, 1459.05, 601.62, 289.48, 0.000, 0.000, 0.000, 19:43:05.977, 1582467185977
77, 606.25, 1488.88, 621.35, 300.95, 0.000, 0.000, 0.000, 19:43:05.991, 1582467185991
78, 567.64, 1425.11, 576.63, 272.60, 0.000, 0.000, 0.000, 19:43:05.991, 1582467185991
79, 583.24, 1454.58, 602.56, 296.65, 0.000, 0.000, 0.000, 19:43:06.006, 1582467186006
80, 580.73, 1423.42, 590.50, 307.10, 0.000, 0.000, 0.000, 19:43:06.006, 1582467186006
81, 592.03, 1463.67, 609.75, 307.30, 0.000, 0.000, 0.000, 19:43:06.007, 1582467186007
82, 608.83, 1514.38, 623.50, 314.55, 0.000, 0.000, 0.000, 19:43:06.007, 1582467186007
83, 602.11, 1456.94, 618.13, 334.66, 0.000, 0.000, 0.000, 19:43:06.020, 1582467186020
84, 590.55, 1484.13, 608.58, 308.20, 0.000, 0.000, 0.000, 19:43:06.020, 1582467186020
85, 596.51, 1466.14, 603.06, 302.08, 0.000, 0.000, 0.000, 19:43:06.036, 1582467186036
86, 609.06, 1476.93, 619.73, 328.55, 0.000, 0.000, 0.000, 19:43:06.036, 1582467186036
87, 581.52, 1446.47, 599.58, 301.40, 0.000, 0.000, 0.000, 19:43:06.037, 1582467186037
88, 572.58, 1432.86, 589.26, 295.85, 0.000, 0.000, 0.000, 19:43:06.037, 1582467186037
89, 589.26, 1437.91, 604.81, 306.69, 0.000, 0.000, 0.000, 19:43:06.067, 1582467186067
90, 578.41, 1466.63, 601.16, 301.34, 0.000, 0.000, 0.000, 19:43:06.067, 1582467186067
91, 582.52, 1458.18, 603.09, 304.93, 0.000, 0.000, 0.000, 19:43:06.067, 1582467186067
92, 602.91, 1504.47, 619.28, 301.76, 0.000, 0.000, 0.000, 19:43:06.067, 1582467186067
93, 582.87, 1443.90, 602.09, 305.91, 0.000, 0.000, 0.000, 19:43:06.068, 1582467186068
94, 574.04, 1419.04, 586.48, 294.06, 0.000, 0.000, 0.000, 19:43:06.068, 1582467186068
95, 612.39, 1468.67, 623.96, 320.43, 0.000, 0.000, 0.000, 19:43:06.081, 1582467186081
96, 594.25, 1482.15, 604.19, 325.58, 0.000, 0.000, 0.000, 19:43:06.081, 1582467186081
97, 605.34, 1479.04, 610.81, 314.43, 0.000, 0.000, 0.000, 19:43:06.096, 1582467186096
98, 586.54, 1445.26, 594.59, 289.74, 0.000, 0.000, 0.000, 19:43:06.096, 1582467186096
99, 578.07, 1441.70, 597.42, 298.98, 0.000, 0.000, 0.000, 19:43:06.098, 1582467186098
100, 599.52, 1475.98, 607.05, 296.48, 0.000, 0.000, 0.000, 19:43:06.098, 1582467186098
101, 599.76, 1469.73, 616.80, 316.68, 0.000, 0.000, 0.000, 19:43:06.111, 1582467186111
102, 577.02, 1450.98, 589.42, 290.07, 0.000, 0.000, 0.000, 19:43:06.111, 1582467186111
103, 606.64, 1499.22, 617.75, 312.76, 0.000, 0.000, 0.000, 19:43:06.127, 1582467186127
104, 608.04, 1478.11, 616.57, 325.69, 0.000, 0.000, 0.000, 19:43:06.127, 1582467186127
105, 595.49, 1467.88, 611.12, 314.77, 0.000, 0.000, 0.000, 19:43:06.127, 1582467186127
106, 610.60, 1479.33, 614.85, 316.32, 0.000, 0.000, 0.000, 19:43:06.127, 1582467186127
107, 592.62, 1434.62, 600.42, 308.00, 0.000, 0.000, 0.000, 19:43:06.141, 1582467186141
108, 589.58, 1454.88, 598.28, 315.66, 0.000, 0.000, 0.000, 19:43:06.141, 1582467186141
109, 591.77, 1449.31, 601.66, 308.63, 0.000, 0.000, 0.000, 19:43:06.156, 1582467186156
110, 601.27, 1462.13, 605.46, 326.06, 0.000, 0.000, 0.000, 19:43:06.156, 1582467186156
111, 583.18, 1449.06, 597.79, 304.87, 0.000, 0.000, 0.000, 19:43:06.157, 1582467186157
112, 601.64, 1479.69, 616.32, 320.10, 0.000, 0.000, 0.000, 19:43:06.157, 1582467186157
113, 598.19, 1433.62, 603.16, 315.70, 0.000, 0.000, 0.000, 19:43:06.171, 1582467186171
114, 604.77, 1477.18, 612.57, 330.52, 0.000, 0.000, 0.000, 19:43:06.171, 1582467186171
115, 617.74, 1487.51, 618.64, 319.29, 0.000, 0.000, 0.000, 19:43:06.186, 1582467186186
116, 602.60, 1455.38, 603.49, 321.54, 0.000, 0.000, 0.000, 19:43:06.186, 1582467186186
117, 588.69, 1454.02, 603.27, 299.45, 0.000, 0.000, 0.000, 19:43:06.187, 1582467186187
118, 608.27, 1511.32, 628.98, 319.42, 0.000, 0.000, 0.000, 19:43:06.187, 1582467186187
119, 600.49, 1460.92, 612.01, 310.85, 0.000, 0.000, 0.000, 19:43:06.201, 1582467186201
120, 566.20, 1410.78, 576.23, 296.56, 0.000, 0.000, 0.000, 19:43:06.201, 1582467186201
121, 590.00, 1455.68, 600.04, 301.75, 0.000, 0.000, 0.000, 19:43:06.216, 1582467186216
122, 592.87, 1437.02, 600.53, 300.70, 0.000, 0.000, 0.000, 19:43:06.216, 1582467186216
123, 596.81, 1458.91, 606.65, 303.22, 0.000, 0.000, 0.000, 19:43:06.217, 1582467186217
124, 576.94, 1434.72, 591.86, 290.37, 0.000, 0.000, 0.000, 19:43:06.217, 1582467186217
125, 582.71, 1433.99, 599.42, 288.12, 0.000, 0.000, 0.000, 19:43:06.231, 1582467186231
126, 574.24, 1441.27, 585.58, 293.60, 0.000, 0.000, 0.000, 19:43:06.231, 1582467186231
127, 582.88, 1442.14, 594.17, 293.22, 0.000, 0.000, 0.000, 19:43:06.246, 1582467186246
128, 582.75, 1457.95, 594.03, 292.59, 0.000, 0.000, 0.000, 19:43:06.246, 1582467186246
129, 588.29, 1455.67, 593.76, 287.98, 0.000, 0.000, 0.000, 19:43:06.247, 1582467186247
130, 580.95, 1426.46, 592.31, 284.48, 0.000, 0.000, 0.000, 19:43:06.247, 1582467186247
131, 585.98, 1422.17, 597.95, 299.97, 0.000, 0.000, 0.000, 19:43:06.261, 1582467186261
132, 584.77, 1458.42, 589.74, 314.20, 0.000, 0.000, 0.000, 19:43:06.261, 1582467186261
133, 591.84, 1451.03, 598.14, 290.06, 0.000, 0.000, 0.000, 19:43:06.276, 1582467186276
134, 593.35, 1470.79, 604.88, 292.35, 0.000, 0.000, 0.000, 19:43:06.276, 1582467186276
135, 582.40, 1462.41, 599.53, 278.72, 0.000, 0.000, 0.000, 19:43:06.277, 1582467186277
136, 582.81, 1458.14, 594.76, 293.34, 0.000, 0.000, 0.000, 19:43:06.277, 1582467186277
137, 604.07, 1451.83, 610.28, 302.25, 0.000, 0.000, 0.000, 19:43:06.291, 1582467186291
138, 573.79, 1437.19, 589.01, 294.24, 0.000, 0.000, 0.000, 19:43:06.291, 1582467186291
139, 614.25, 1496.42, 619.85, 312.41, 0.000, 0.000, 0.000, 19:43:06.306, 1582467186306
140, 603.65, 1473.74, 607.59, 300.64, 0.000, 0.000, 0.000, 19:43:06.306, 1582467186306
141, 561.44, 1416.36, 583.02, 279.22, 0.000, 0.000, 0.000, 19:43:06.307, 1582467186307
142, 594.53, 1446.59, 597.74, 300.07, 0.000, 0.000, 0.000, 19:43:06.307, 1582467186307
143, 593.25, 1430.99, 596.41, 281.96, 0.000, 0.000, 0.000, 19:43:06.321, 1582467186321
144, 559.07, 1417.88, 568.97, 268.63, 0.000, 0.000, 0.000, 19:43:06.321, 1582467186321
145, 599.59, 1479.13, 610.20, 301.75, 0.000, 0.000, 0.000, 19:43:06.336, 1582467186336
146, 605.66, 1463.59, 610.44, 307.02, 0.000, 0.000, 0.000, 19:43:06.336, 1582467186336
147, 574.03, 1407.41, 582.58, 283.69, 0.000, 0.000, 0.000, 19:43:06.337, 1582467186337
148, 586.78, 1438.08, 591.50, 288.18, 0.000, 0.000, 0.000, 19:43:06.337, 1582467186337
149, 601.14, 1442.77, 604.56, 297.36, 0.000, 0.000, 0.000, 19:43:06.351, 1582467186351
150, 586.28, 1440.32, 595.42, 291.22, 0.000, 0.000, 0.000, 19:43:06.351, 1582467186351
151, 588.58, 1433.76, 594.09, 288.09, 0.000, 0.000, 0.000, 19:43:06.366, 1582467186366
152, 597.46, 1456.78, 602.63, 305.82, 0.000, 0.000, 0.000, 19:43:06.366, 1582467186366
153, 583.69, 1430.29, 591.94, 290.69, 0.000, 0.000, 0.000, 19:43:06.367, 1582467186367
154, 598.11, 1460.31, 605.91, 300.83, 0.000, 0.000, 0.000, 19:43:06.367, 1582467186367
155, 595.06, 1452.57, 601.07, 263.84, 0.000, 0.000, 0.000, 19:43:06.381, 1582467186381
156, 585.74, 1458.14, 593.98, 294.32, 0.000, 0.000, 0.000, 19:43:06.381, 1582467186381
157, 585.21, 1450.28, 599.62, 297.76, 0.000, 0.000, 0.000, 19:43:06.396, 1582467186396
158, 575.82, 1409.38, 581.40, 274.74, 0.000, 0.000, 0.000, 19:43:06.396, 1582467186396
159, 569.08, 1409.83, 578.09, 261.74, 0.000, 0.000, 0.000, 19:43:06.397, 1582467186397
160, 606.93, 1479.45, 605.38, 290.06, 0.000, 0.000, 0.000, 19:43:06.397, 1582467186397
161, 588.19, 1431.59, 594.07, 276.24, 0.000, 0.000, 0.000, 19:43:06.411, 1582467186411
162, 561.28, 1386.19, 568.11, 278.84, 0.000, 0.000, 0.000, 19:43:06.411, 1582467186411
163, 555.37, 1395.65, 570.65, 247.35, 0.000, 0.000, 0.000, 19:43:06.426, 1582467186426
164, 590.33, 1450.35, 596.77, 292.82, 0.000, 0.000, 0.000, 19:43:06.426, 1582467186426
165, 585.36, 1437.43, 592.85, 281.03, 0.000, 0.000, 0.000, 19:43:06.427, 1582467186427
166, 596.64, 1438.41, 599.96, 298.79, 0.000, 0.000, 0.000, 19:43:06.427, 1582467186427
167, 598.22, 1445.76, 601.24, 284.11, 0.000, 0.000, 0.000, 19:43:06.441, 1582467186441
168, 608.62, 1488.87, 608.93, 312.99, 0.000, 0.000, 0.000, 19:43:06.441, 1582467186441
169, 600.73, 1432.85, 594.60, 295.61, 0.000, 0.000, 0.000, 19:43:06.457, 1582467186457
170, 590.67, 1433.53, 595.32, 295.79, 0.000, 0.000, 0.000, 19:43:06.457, 1582467186457
171, 590.98, 1439.13, 601.10, 298.36, 0.000, 0.000, 0.000, 19:43:06.457, 1582467186457
172, 581.11, 1426.43, 586.38, 286.24, 0.000, 0.000, 0.000, 19:43:06.457, 1582467186457
173, 600.34, 1448.58, 608.75, 297.24, 0.000, 0.000, 0.000, 19:43:06.471, 1582467186471
174, 601.40, 1466.15, 604.03, 309.40, 0.000, 0.000, 0.000, 19:43:06.471, 1582467186471
175, 606.97, 1476.56, 614.54, 311.21, 0.000, 0.000, 0.000, 19:43:06.487, 1582467186487
176, 596.17, 1452.90, 593.96, 295.08, 0.000, 0.000, 0.000, 19:43:06.487, 1582467186487
177, 581.24, 1436.89, 585.30, 268.21, 0.000, 0.000, 0.000, 19:43:06.487, 1582467186487
178, 586.68, 1437.48, 582.93, 258.98, 0.000, 0.000, 0.000, 19:43:06.487, 1582467186487
179, 599.91, 1438.08, 597.35, 284.00, 0.000, 0.000, 0.000, 19:43:06.501, 1582467186501
180, 588.93, 1475.75, 593.65, 288.36, 0.000, 0.000, 0.000, 19:43:06.501, 1582467186501
181, 589.14, 1451.81, 596.41, 285.46, 0.000, 0.000, 0.000, 19:43:06.517, 1582467186517
182, 590.73, 1418.54, 583.72, 290.78, 0.000, 0.000, 0.000, 19:43:06.517, 1582467186517
183, 583.71, 1434.20, 597.02, 293.59, 0.000, 0.000, 0.000, 19:43:06.517, 1582467186517
184, 578.54, 1429.40, 584.08, 285.21, 0.000, 0.000, 0.000, 19:43:06.517, 1582467186517
185, 594.84, 1446.80, 601.91, 292.44, 0.000, 0.000, 0.000, 19:43:06.531, 1582467186531
186, 604.32, 1490.94, 614.22, 317.90, 0.000, 0.000, 0.000, 19:43:06.531, 1582467186531
187, 578.95, 1411.28, 579.04, 274.79, 0.000, 0.000, 0.000, 19:43:06.546, 1582467186546
188, 588.55, 1433.06, 586.93, 288.54, 0.000, 0.000, 0.000, 19:43:06.546, 1582467186546
189, 581.47, 1431.50, 589.60, 275.31, 0.000, 0.000, 0.000, 19:43:06.547, 1582467186547
190, 601.18, 1454.76, 596.68, 286.73, 0.000, 0.000, 0.000, 19:43:06.547, 1582467186547
191, 588.76, 1431.66, 599.13, 297.61, 0.000, 0.000, 0.000, 19:43:06.561, 1582467186561
192, 586.95, 1468.30, 594.93, 285.72, 0.000, 0.000, 0.000, 19:43:06.561, 1582467186561
193, 572.88, 1435.58, 581.09, 257.09, 0.000, 0.000, 0.000, 19:43:06.576, 1582467186576
194, 581.17, 1424.96, 584.03, 272.46, 0.000, 0.000, 0.000, 19:43:06.576, 1582467186576
195, 581.27, 1433.59, 587.95, 291.65, 0.000, 0.000, 0.000, 19:43:06.592, 1582467186592
196, 598.31, 1498.44, 605.50, 279.75, 0.000, 0.000, 0.000, 19:43:06.592, 1582467186592
197, 606.26, 1483.76, 613.43, 285.48, 0.000, 0.000, 0.000, 19:43:06.592, 1582467186592
198, 538.68, 1363.57, 549.57, 258.58, 0.000, 0.000, 0.000, 19:43:06.592, 1582467186592
199, 569.16, 1405.33, 570.71, 264.63, 0.000, 0.000, 0.000, 19:43:06.623, 1582467186623
200, 600.25, 1452.94, 601.70, 300.02, 0.000, 0.000, 0.000, 19:43:06.623, 1582467186623
0, 582.35, 1441.50, 588.43, 295.75, 0.000, 0.000, 0.000, 19:43:06.623, 1582467186623
1, 592.39, 1451.48, 601.13, 298.14, 0.000, 0.000, 0.000, 19:43:06.624, 1582467186624
2, 588.99, 1452.46, 598.22, 311.75, 0.000, 0.000, 0.000, 19:43:06.624, 1582467186624
3, 589.97, 1448.90, 598.43, 305.28, 0.000, 0.000, 0.000, 19:43:06.625, 1582467186625
4, 596.53, 1452.25, 598.12, 310.06, 0.000, 0.000, 0.000, 19:43:06.625, 1582467186625
5, 613.68, 1457.04, 614.03, 297.23, 0.000, 0.000, 0.000, 19:43:06.636, 1582467186636
6, 582.43, 1462.01, 589.85, 289.78, 0.000, 0.000, 0.000, 19:43:06.636, 1582467186636
7, 606.40, 1481.85, 604.15, 293.66, 0.000, 0.000, 0.000, 19:43:06.651, 1582467186651
8, 587.18, 1433.96, 588.91, 280.65, 0.000, 0.000, 0.000, 19:43:06.651, 1582467186651
9, 581.31, 1458.85, 592.51, 282.02, 0.000, 0.000, 0.000, 19:43:06.652, 1582467186652
10, 564.97, 1425.00, 572.94, 267.72, 0.000, 0.000, 0.000, 19:43:06.652, 1582467186652
11, 558.55, 1387.90, 557.89, 251.37, 0.000, 0.000, 0.000, 19:43:06.666, 1582467186666
12, 569.86, 1451.34, 575.70, 271.25, 0.000, 0.000, 0.000, 19:43:06.666, 1582467186666
13, 572.51, 1436.49, 579.20, 264.15, 0.000, 0.000, 0.000, 19:43:06.681, 1582467186681
14, 594.16, 1467.20, 597.22, 281.32, 0.000, 0.000, 0.000, 19:43:06.681, 1582467186681
15, 567.20, 1435.50, 582.90, 281.54, 0.000, 0.000, 0.000, 19:43:06.682, 1582467186682
16, 554.26, 1408.60, 574.31, 280.29, 0.000, 0.000, 0.000, 19:43:06.682, 1582467186682
17, 567.67, 1399.51, 576.61, 272.64, 0.000, 0.000, 0.000, 19:43:06.696, 1582467186696
18, 560.46, 1442.48, 582.41, 284.32, 0.000, 0.000, 0.000, 19:43:06.696, 1582467186696
19, 569.45, 1433.80, 583.06, 280.99, 0.000, 0.000, 0.000, 19:43:06.726, 1582467186726
20, 590.73, 1461.04, 595.69, 303.75, 0.000, 0.000, 0.000, 19:43:06.726, 1582467186726
21, 572.30, 1437.73, 588.53, 287.86, 0.000, 0.000, 0.000, 19:43:06.743, 1582467186743
22, 563.31, 1426.81, 577.52, 276.55, 0.000, 0.000, 0.000, 19:43:06.743, 1582467186743
23, 578.81, 1440.39, 583.77, 282.97, 0.000, 0.000, 0.000, 19:43:06.743, 1582467186743
24, 575.26, 1450.81, 593.81, 289.86, 0.000, 0.000, 0.000, 19:43:06.743, 1582467186743
25, 590.76, 1477.99, 600.47, 292.60, 0.000, 0.000, 0.000, 19:43:06.744, 1582467186744
26, 590.51, 1453.77, 594.33, 278.50, 0.000, 0.000, 0.000, 19:43:06.744, 1582467186744
27, 522.27, 1385.79, 538.51, 233.90, 0.000, 0.000, 0.000, 19:43:06.745, 1582467186745
28, 558.05, 1410.36, 569.96, 256.56, 0.000, 0.000, 0.000, 19:43:06.745, 1582467186745
29, 583.93, 1454.47, 601.52, 273.02, 0.000, 0.000, 0.000, 19:43:06.756, 1582467186756
30, 583.68, 1495.92, 591.60, 279.54, 0.000, 0.000, 0.000, 19:43:06.756, 1582467186756
31, 565.68, 1443.13, 579.23, 273.31, 0.000, 0.000, 0.000, 19:43:06.772, 1582467186772
32, 549.00, 1369.99, 558.69, 259.02, 0.000, 0.000, 0.000, 19:43:06.772, 1582467186772
33, 555.71, 1399.32, 572.96, 269.82, 0.000, 0.000, 0.000, 19:43:06.772, 1582467186772
34, 573.70, 1438.48, 579.12, 272.38, 0.000, 0.000, 0.000, 19:43:06.772, 1582467186772
35, 565.35, 1408.66, 576.01, 271.10, 0.000, 0.000, 0.000, 19:43:06.786, 1582467186786
36, 550.81, 1399.73, 561.72, 270.22, 0.000, 0.000, 0.000, 19:43:06.786, 1582467186786
37, 567.24, 1436.20, 581.31, 276.21, 0.000, 0.000, 0.000, 19:43:06.802, 1582467186802
38, 554.73, 1402.66, 562.35, 252.86, 0.000, 0.000, 0.000, 19:43:06.802, 1582467186802
39, 571.36, 1443.39, 583.24, 267.90, 0.000, 0.000, 0.000, 19:43:06.802, 1582467186802
40, 575.88, 1429.92, 587.18, 280.80, 0.000, 0.000, 0.000, 19:43:06.802, 1582467186802
41, 564.81, 1407.28, 577.27, 241.59, 0.000, 0.000, 0.000, 19:43:06.816, 1582467186816
42, 555.32, 1446.55, 570.08, 258.09, 0.000, 0.000, 0.000, 19:43:06.816, 1582467186816
43, 549.11, 1394.19, 554.97, 258.49, 0.000, 0.000, 0.000, 19:43:06.832, 1582467186832
44, 565.58, 1432.85, 577.26, 275.82, 0.000, 0.000, 0.000, 19:43:06.832, 1582467186832
45, 556.68, 1424.32, 572.36, 265.33, 0.000, 0.000, 0.000, 19:43:06.832, 1582467186832
46, 565.30, 1465.88, 582.08, 250.94, 0.000, 0.000, 0.000, 19:43:06.832, 1582467186832
47, 540.53, 1365.31, 554.07, 251.67, 0.000, 0.000, 0.000, 19:43:06.846, 1582467186846
48, 526.81, 1387.44, 548.30, 241.71, 0.000, 0.000, 0.000, 19:43:06.846, 1582467186846
49, 548.50, 1404.96, 560.58, 253.65, 0.000, 0.000, 0.000, 19:43:06.877, 1582467186877
50, 542.34, 1430.95, 569.82, 259.21, 0.000, 0.000, 0.000, 19:43:06.877, 1582467186877
51, 564.39, 1463.88, 584.55, 272.84, 0.000, 0.000, 0.000, 19:43:06.878, 1582467186878
52, 555.21, 1431.35, 572.51, 260.79, 0.000, 0.000, 0.000, 19:43:06.878, 1582467186878
53, 572.88, 1463.70, 592.03, 283.09, 0.000, 0.000, 0.000, 19:43:06.879, 1582467186879
54, 542.50, 1414.50, 565.92, 266.05, 0.000, 0.000, 0.000, 19:43:06.879, 1582467186879
55, 539.65, 1415.79, 569.85, 258.22, 0.000, 0.000, 0.000, 19:43:06.892, 1582467186892
56, 546.74, 1377.57, 568.32, 256.07, 0.000, 0.000, 0.000, 19:43:06.892, 1582467186892
57, 533.63, 1403.04, 551.70, 261.12, 0.000, 0.000, 0.000, 19:43:06.892, 1582467186892
58, 546.88, 1422.70, 571.51, 279.10, 0.000, 0.000, 0.000, 19:43:06.892, 1582467186892
59, 547.36, 1432.94, 579.44, 263.60, 0.000, 0.000, 0.000, 19:43:06.906, 1582467186906
60, 556.74, 1471.77, 586.17, 275.59, 0.000, 0.000, 0.000, 19:43:06.906, 1582467186906
61, 560.74, 1441.11, 582.49, 282.11, 0.000, 0.000, 0.000, 19:43:06.922, 1582467186922
62, 549.84, 1415.31, 572.04, 286.62, 0.000, 0.000, 0.000, 19:43:06.922, 1582467186922
63, 572.55, 1472.53, 600.53, 298.08, 0.000, 0.000, 0.000, 19:43:06.922, 1582467186922
64, 537.94, 1404.51, 563.07, 263.45, 0.000, 0.000, 0.000, 19:43:06.922, 1582467186922
65, 560.20, 1426.30, 579.82, 266.58, 0.000, 0.000, 0.000, 19:43:06.936, 1582467186936
66, 556.34, 1448.24, 581.76, 271.93, 0.000, 0.000, 0.000, 19:43:06.936, 1582467186936
67, 554.92, 1447.39, 577.13, 275.19, 0.000, 0.000, 0.000, 19:43:06.952, 1582467186952
68, 554.46, 1416.62, 570.67, 270.05, 0.000, 0.000, 0.000, 19:43:06.952, 1582467186952
69, 572.64, 1464.91, 594.17, 285.61, 0.000, 0.000, 0.000, 19:43:06.952, 1582467186952
70, 560.97, 1457.02, 581.86, 264.41, 0.000, 0.000, 0.000, 19:43:06.952, 1582467186952
71, 554.37, 1412.07, 572.78, 269.20, 0.000, 0.000, 0.000, 19:43:06.966, 1582467186966
72, 528.71, 1397.53, 550.14, 254.06, 0.000, 0.000, 0.000, 19:43:06.966, 1582467186966
73, 539.24, 1383.28, 556.13, 266.80, 0.000, 0.000, 0.000, 19:43:06.982, 1582467186982
74, 541.67, 1397.76, 554.52, 255.59, 0.000, 0.000, 0.000, 19:43:06.982, 1582467186982
75, 537.90, 1409.79, 565.66, 254.70, 0.000, 0.000, 0.000, 19:43:06.982, 1582467186982
76, 544.49, 1418.30, 570.80, 275.02, 0.000, 0.000, 0.000, 19:43:06.982, 1582467186982
77, 571.94, 1461.06, 597.97, 275.95, 0.000, 0.000, 0.000, 19:43:06.996, 1582467186996
78, 567.44, 1461.94, 589.83, 289.70, 0.000, 0.000, 0.000, 19:43:06.996, 1582467186996
79, 535.41, 1388.13, 554.32, 253.73, 0.000, 0.000, 0.000, 19:43:07.011, 1582467187011
80, 542.03, 1396.85, 560.14, 259.55, 0.000, 0.000, 0.000, 19:43:07.011, 1582467187011
81, 541.43, 1411.25, 570.71, 256.69, 0.000, 0.000, 0.000, 19:43:07.027, 1582467187027
82, 560.78, 1448.92, 581.17, 264.13, 0.000, 0.000, 0.000, 19:43:07.027, 1582467187027
83, 557.16, 1424.89, 581.76, 278.26, 0.000, 0.000, 0.000, 19:43:07.027, 1582467187027
84, 534.93, 1404.90, 555.11, 251.84, 0.000, 0.000, 0.000, 19:43:07.027, 1582467187027
85, 544.20, 1407.11, 567.45, 259.25, 0.000, 0.000, 0.000, 19:43:07.042, 1582467187042
86, 560.58, 1422.56, 576.91, 273.15, 0.000, 0.000, 0.000, 19:43:07.042, 1582467187042
87, 536.04, 1422.54, 558.42, 257.95, 0.000, 0.000, 0.000, 19:43:07.042, 1582467187042
88, 552.75, 1423.66, 569.89, 264.86, 0.000, 0.000, 0.000, 19:43:07.042, 1582467187042
89, 570.92, 1441.36, 588.05, 273.74, 0.000, 0.000, 0.000, 19:43:07.056, 1582467187056
90, 573.94, 1467.02, 592.54, 294.58, 0.000, 0.000, 0.000, 19:43:07.056, 1582467187056
91, 541.50, 1387.33, 557.84, 259.40, 0.000, 0.000, 0.000, 19:43:07.072, 1582467187072
92, 552.40, 1414.79, 574.16, 265.47, 0.000, 0.000, 0.000, 19:43:07.072, 1582467187072
93, 560.05, 1440.24, 589.68, 295.78, 0.000, 0.000, 0.000, 19:43:07.072, 1582467187072
94, 565.19, 1445.93, 588.88, 283.91, 0.000, 0.000, 0.000, 19:43:07.072, 1582467187072
95, 569.27, 1453.71, 591.99, 287.10, 0.000, 0.000, 0.000, 19:43:07.086, 1582467187086
96, 549.12, 1443.70, 572.43, 270.88, 0.000, 0.000, 0.000, 19:43:07.086, 1582467187086
97, 555.97, 1431.19, 581.06, 290.38, 0.000, 0.000, 0.000, 19:43:07.102, 1582467187102
98, 550.59, 1406.24, 568.19, 272.56, 0.000, 0.000, 0.000, 19:43:07.102, 1582467187102
99, 539.99, 1402.37, 562.17, 267.01, 0.000, 0.000, 0.000, 19:43:07.102, 1582467187102
100, 564.34, 1421.61, 576.09, 278.94, 0.000, 0.000, 0.000, 19:43:07.102, 1582467187102
101, 565.58, 1429.63, 586.13, 276.60, 0.000, 0.000, 0.000, 19:43:07.116, 1582467187116
102, 549.74, 1428.45, 567.81, 270.61, 0.000, 0.000, 0.000, 19:43:07.116, 1582467187116
103, 566.77, 1444.47, 582.63, 281.24, 0.000, 0.000, 0.000, 19:43:07.132, 1582467187132
104, 587.91, 1504.72, 612.37, 311.91, 0.000, 0.000, 0.000, 19:43:07.132, 1582467187132
105, 569.04, 1446.37, 590.91, 286.67, 0.000, 0.000, 0.000, 19:43:07.132, 1582467187132
106, 540.31, 1396.90, 560.69, 252.35, 0.000, 0.000, 0.000, 19:43:07.132, 1582467187132
107, 549.81, 1413.29, 567.44, 263.13, 0.000, 0.000, 0.000, 19:43:07.146, 1582467187146
108, 531.98, 1402.75, 559.45, 269.01, 0.000, 0.000, 0.000, 19:43:07.146, 1582467187146
109, 575.82, 1474.39, 594.43, 278.80, 0.000, 0.000, 0.000, 19:43:07.162, 1582467187162
110, 539.25, 1388.71, 559.70, 263.66, 0.000, 0.000, 0.000, 19:43:07.162, 1582467187162
111, 556.31, 1445.59, 583.33, 277.85, 0.000, 0.000, 0.000, 19:43:07.177, 1582467187177
112, 556.78, 1438.71, 580.97, 278.50, 0.000, 0.000, 0.000, 19:43:07.177, 1582467187177
113, 560.23, 1416.70, 582.10, 284.52, 0.000, 0.000, 0.000, 19:43:07.177, 1582467187177
114, 547.10, 1434.64, 572.56, 268.29, 0.000, 0.000, 0.000, 19:43:07.177, 1582467187177
115, 549.82, 1432.78, 579.68, 274.30, 0.000, 0.000, 0.000, 19:43:07.192, 1582467187192
116, 559.58, 1431.80, 585.00, 274.41, 0.000, 0.000, 0.000, 19:43:07.192, 1582467187192
117, 553.57, 1409.67, 571.87, 286.48, 0.000, 0.000, 0.000, 19:43:07.192, 1582467187192
118, 547.87, 1423.64, 574.27, 265.80, 0.000, 0.000, 0.000, 19:43:07.192, 1582467187192
119, 549.64, 1418.12, 567.07, 251.59, 0.000, 0.000, 0.000, 19:43:07.206, 1582467187206
120, 546.91, 1437.85, 573.62, 266.35, 0.000, 0.000, 0.000, 19:43:07.206, 1582467187206
121, 560.51, 1446.40, 580.10, 264.31, 0.000, 0.000, 0.000, 19:43:07.222, 1582467187222
122, 554.68, 1403.45, 564.91, 260.59, 0.000, 0.000, 0.000, 19:43:07.222, 1582467187222
123, 544.38, 1412.34, 569.62, 262.97, 0.000, 0.000, 0.000, 19:43:07.222, 1582467187222
124, 542.43, 1400.18, 556.91, 246.40, 0.000, 0.000, 0.000, 19:43:07.222, 1582467187222
125, 554.73, 1406.91, 570.06, 247.99, 0.000, 0.000, 0.000, 19:43:07.236, 1582467187236
126, 516.00, 1367.83, 526.93, 220.95, 0.000, 0.000, 0.000, 19:43:07.236, 1582467187236
127, 502.63, 1358.55, 530.50, 205.24, 0.000, 0.000, 0.000, 19:43:07.252, 1582467187252
128, 524.81, 1377.47, 544.50, 228.31, 0.000, 0.000, 0.000, 19:43:07.252, 1582467187252
129, 498.56, 1335.75, 524.16, 182.60, 0.000, 0.000, 0.000, 19:43:07.252, 1582467187252
130, 467.09, 1295.82, 492.65, 148.92, 0.000, 0.000, 0.000, 19:43:07.252, 1582467187252
131, 452.02, 1262.53, 477.17, 129.03, 0.000, 0.000, 0.000, 19:43:07.266, 1582467187266
132, 446.76, 1275.77, 469.54, 138.17, 0.000, 0.000, 0.000, 19:43:07.266, 1582467187266
133, 456.45, 1268.60, 475.47, 134.97, 0.000, 0.000, 0.000, 19:43:07.282, 1582467187282
134, 448.68, 1256.52, 468.56, 114.14, 0.000, 0.000, 0.000, 19:43:07.282, 1582467187282
135, 454.03, 1275.32, 478.42, 129.49, 0.000, 0.000, 0.000, 19:43:07.282, 1582467187282
136, 470.42, 1306.15, 489.92, 133.01, 0.000, 0.000, 0.000, 19:43:07.282, 1582467187282
137, 435.33, 1235.45, 456.16, 77.64, 0.000, 0.000, 0.000, 19:43:07.296, 1582467187296
138, 402.29, 1194.70, 424.35, 51.03, 0.000, 0.000, 0.000, 19:43:07.296, 1582467187296
139, 408.04, 1167.25, 426.89, 66.09, 0.000, 0.000, 0.000, 19:43:07.312, 1582467187312
140, 434.23, 1239.85, 454.82, 95.63, 0.000, 0.000, 0.000, 19:43:07.312, 1582467187312
141, 395.28, 1178.33, 432.26, 57.96, 0.000, 0.000, 0.000, 19:43:07.312, 1582467187312
142, 385.81, 1151.20, 408.00, 26.14, 0.000, 0.000, 0.000, 19:43:07.312, 1582467187312
143, 414.11, 1194.22, 435.06, 53.81, 0.000, 0.000, 0.000, 19:43:07.326, 1582467187326
144, 434.19, 1257.72, 453.05, 86.17, 0.000, 0.000, 0.000, 19:43:07.326, 1582467187326
145, 406.81, 1181.60, 423.66, 57.33, 0.000, 0.000, 0.000, 19:43:07.342, 1582467187342
146, 408.61, 1186.02, 426.50, 55.69, 0.000, 0.000, 0.000, 19:43:07.342, 1582467187342
147, 405.09, 1186.95, 429.19, 77.10, 0.000, 0.000, 0.000, 19:43:07.342, 1582467187342
148, 411.78, 1210.58, 440.48, 81.98, 0.000, 0.000, 0.000, 19:43:07.342, 1582467187342
149, 436.61, 1232.39, 462.22, 103.74, 0.000, 0.000, 0.000, 19:43:07.356, 1582467187356
150, 427.89, 1224.76, 448.47, 103.91, 0.000, 0.000, 0.000, 19:43:07.356, 1582467187356
151, 433.82, 1240.44, 458.29, 108.97, 0.000, 0.000, 0.000, 19:43:07.372, 1582467187372
152, 437.82, 1242.29, 457.43, 116.98, 0.000, 0.000, 0.000, 19:43:07.372, 1582467187372
153, 443.93, 1232.09, 466.82, 127.33, 0.000, 0.000, 0.000, 19:43:07.372, 1582467187372
154, 476.75, 1299.43, 501.61, 189.23, 0.000, 0.000, 0.000, 19:43:07.372, 1582467187372
155, 446.83, 1251.48, 467.18, 103.80, 0.000, 0.000, 0.000, 19:43:07.386, 1582467187386
156, 401.79, 1191.66, 424.36, 62.21, 0.000, 0.000, 0.000, 19:43:07.386, 1582467187386
157, 433.79, 1222.28, 454.40, 99.60, 0.000, 0.000, 0.000, 19:43:07.402, 1582467187402
158, 442.04, 1247.50, 462.88, 108.66, 0.000, 0.000, 0.000, 19:43:07.402, 1582467187402
159, 448.30, 1274.93, 478.16, 122.82, 0.000, 0.000, 0.000, 19:43:07.402, 1582467187402
160, 445.52, 1243.36, 474.11, 138.39, 0.000, 0.000, 0.000, 19:43:07.402, 1582467187402
161, 460.50, 1258.80, 481.95, 114.90, 0.000, 0.000, 0.000, 19:43:07.433, 1582467187433
162, 463.22, 1284.57, 476.13, 140.26, 0.000, 0.000, 0.000, 19:43:07.433, 1582467187433
163, 475.97, 1298.35, 490.33, 154.96, 0.000, 0.000, 0.000, 19:43:07.433, 1582467187433
164, 486.94, 1299.42, 497.17, 170.06, 0.000, 0.000, 0.000, 19:43:07.433, 1582467187433
165, 483.33, 1306.73, 505.64, 159.09, 0.000, 0.000, 0.000, 19:43:07.434, 1582467187434
166, 491.56, 1322.30, 511.66, 189.72, 0.000, 0.000, 0.000, 19:43:07.434, 1582467187434
167, 503.70, 1329.73, 524.91, 203.06, 0.000, 0.000, 0.000, 19:43:07.446, 1582467187446
168, 498.45, 1336.29, 508.30, 203.20, 0.000, 0.000, 0.000, 19:43:07.446, 1582467187446
169, 513.58, 1352.73, 533.09, 226.07, 0.000, 0.000, 0.000, 19:43:07.462, 1582467187462
170, 534.52, 1382.05, 540.54, 227.87, 0.000, 0.000, 0.000, 19:43:07.462, 1582467187462
171, 548.06, 1435.40, 569.70, 238.97, 0.000, 0.000, 0.000, 19:43:07.462, 1582467187462
172, 537.67, 1370.70, 540.71, 241.22, 0.000, 0.000, 0.000, 19:43:07.462, 1582467187462
173, 536.76, 1346.71, 540.41, 249.66, 0.000, 0.000, 0.000, 19:43:07.476, 1582467187476
174, 537.23, 1376.60, 548.30, 274.07, 0.000, 0.000, 0.000, 19:43:07.476, 1582467187476
175, 551.94, 1390.47, 563.13, 272.83, 0.000, 0.000, 0.000, 19:43:07.492, 1582467187492
176, 574.19, 1427.33, 583.41, 304.74, 0.000, 0.000, 0.000, 19:43:07.492, 1582467187492
177, 556.71, 1411.74, 588.39, 256.65, 0.000, 0.000, 0.000, 19:43:07.492, 1582467187492
178, 579.45, 1451.19, 598.90, 272.55, 0.000, 0.000, 0.000, 19:43:07.492, 1582467187492
179, 596.12, 1466.02, 615.95, 294.36, 0.000, 0.000, 0.000, 19:43:07.506, 1582467187506
180, 570.50, 1444.05, 603.59, 302.74, 0.000, 0.000, 0.000, 19:43:07.506, 1582467187506
181, 592.66, 1473.16, 621.33, 314.99, 0.000, 0.000, 0.000, 19:43:07.522, 1582467187522
182, 564.48, 1393.76, 585.43, 292.31, 0.000, 0.000, 0.000, 19:43:07.522, 1582467187522
183, 561.58, 1394.40, 592.30, 306.33, 0.000, 0.000, 0.000, 19:43:07.523, 1582467187523
184, 578.72, 1417.04, 605.89, 313.65, 0.000, 0.000, 0.000, 19:43:07.523, 1582467187523
185, 590.68, 1425.25, 613.38, 311.96, 0.000, 0.000, 0.000, 19:43:07.536, 1582467187536
186, 576.30, 1445.95, 603.86, 308.65, 0.000, 0.000, 0.000, 19:43:07.536, 1582467187536
187, 591.09, 1443.09, 609.11, 312.31, 0.000, 0.000, 0.000, 19:43:07.552, 1582467187552
188, 593.32, 1443.06, 604.04, 314.10, 0.000, 0.000, 0.000, 19:43:07.552, 1582467187552
189, 604.26, 1466.77, 625.26, 337.07, 0.000, 0.000, 0.000, 19:43:07.553, 1582467187553
190, 611.10, 1486.00, 631.63, 344.65, 0.000, 0.000, 0.000, 19:43:07.553, 1582467187553
191, 600.93, 1451.25, 628.42, 327.56, 0.000, 0.000, 0.000, 19:43:07.566, 1582467187566
192, 590.33, 1478.91, 630.06, 322.75, 0.000, 0.000, 0.000, 19:43:07.566, 1582467187566
193, 597.34, 1461.33, 640.26, 336.57, 0.000, 0.000, 0.000, 19:43:07.582, 1582467187582
194, 593.71, 1463.00, 632.20, 332.06, 0.000, 0.000, 0.000, 19:43:07.582, 1582467187582
195, 599.90, 1468.72, 635.97, 367.01, 0.000, 0.000, 0.000, 19:43:07.583, 1582467187583
196, 610.02, 1472.78, 639.64, 352.47, 0.000, 0.000, 0.000, 19:43:07.583, 1582467187583
197, 602.83, 1477.60, 638.11, 338.38, 0.000, 0.000, 0.000, 19:43:07.596, 1582467187596
198, 563.88, 1466.10, 601.05, 317.79, 0.000, 0.000, 0.000, 19:43:07.596, 1582467187596
199, 595.67, 1481.54, 627.85, 339.88, 0.000, 0.000, 0.000, 19:43:07.612, 1582467187612
200, 613.29, 1486.42, 635.65, 354.10, 0.000, 0.000, 0.000, 19:43:07.612, 1582467187612
0, 616.21, 1490.47, 640.03, 379.12, 0.000, 0.000, 0.000, 19:43:07.613, 1582467187613
1, 614.00, 1486.03, 628.24, 360.35, 0.000, 0.000, 0.000, 19:43:07.627, 1582467187627
2, 631.38, 1486.10, 628.93, 383.06, 0.000, 0.000, 0.000, 19:43:07.627, 1582467187627
3, 628.84, 1508.25, 627.06, 382.32, 0.000, 0.000, 0.000, 19:43:07.628, 1582467187628
4, 622.88, 1513.02, 624.61, 361.73, 0.000, 0.000, 0.000, 19:43:07.628, 1582467187628
5, 609.62, 1492.75, 627.71, 381.90, 0.000, 0.000, 0.000, 19:43:07.641, 1582467187641
6, 606.91, 1500.98, 616.19, 381.68, 0.000, 0.000, 0.000, 19:43:07.641, 1582467187641
7, 605.45, 1490.42, 611.06, 365.23, 0.000, 0.000, 0.000, 19:43:07.657, 1582467187657
8, 609.35, 1482.72, 610.95, 367.69, 0.000, 0.000, 0.000, 19:43:07.657, 1582467187657
9, 617.63, 1493.91, 619.93, 379.04, 0.000, 0.000, 0.000, 19:43:07.657, 1582467187657
10, 601.63, 1481.18, 607.15, 358.98, 0.000, 0.000, 0.000, 19:43:07.657, 1582467187657
11, 599.73, 1467.61, 619.89, 365.51, 0.000, 0.000, 0.000, 19:43:07.704, 1582467187704
12, 602.31, 1478.00, 613.79, 374.75, 0.000, 0.000, 0.000, 19:43:07.704, 1582467187704
13, 613.65, 1487.74, 627.08, 378.20, 0.000, 0.000, 0.000, 19:43:07.704, 1582467187704
14, 606.32, 1476.51, 623.19, 386.94, 0.000, 0.000, 0.000, 19:43:07.704, 1582467187704
15, 606.52, 1480.87, 635.19, 396.67, 0.000, 0.000, 0.000, 19:43:07.705, 1582467187705
16, 614.99, 1491.21, 647.46, 400.23, 0.000, 0.000, 0.000, 19:43:07.705, 1582467187705
17, 619.80, 1495.55, 652.24, 420.02, 0.000, 0.000, 0.000, 19:43:07.705, 1582467187705
18, 610.79, 1497.87, 649.34, 415.26, 0.000, 0.000, 0.000, 19:43:07.705, 1582467187705
19, 606.24, 1493.04, 642.22, 418.27, 0.000, 0.000, 0.000, 19:43:07.717, 1582467187717
20, 630.32, 1487.11, 663.84, 456.09, 0.000, 0.000, 0.000, 19:43:07.717, 1582467187717
21, 597.03, 1486.74, 630.67, 433.73, 0.000, 0.000, 0.000, 19:43:07.732, 1582467187732
22, 603.62, 1479.38, 627.11, 402.33, 0.000, 0.000, 0.000, 19:43:07.732, 1582467187732
23, 638.83, 1493.77, 653.48, 438.09, 0.000, 0.000, 0.000, 19:43:07.733, 1582467187733
24, 642.32, 1521.90, 652.06, 449.26, 0.000, 0.000, 0.000, 19:43:07.733, 1582467187733
25, 647.81, 1492.55, 656.54, 467.95, 0.000, 0.000, 0.000, 19:43:07.747, 1582467187747
26, 649.88, 1486.39, 669.44, 456.54, 0.000, 0.000, 0.000, 19:43:07.747, 1582467187747
27, 629.03, 1477.17, 652.42, 466.66, 0.000, 0.000, 0.000, 19:43:07.747, 1582467187747
28, 646.74, 1489.33, 669.95, 479.54, 0.000, 0.000, 0.000, 19:43:07.747, 1582467187747
29, 648.28, 1482.71, 668.66, 468.13, 0.000, 0.000, 0.000, 19:43:07.761, 1582467187761
30, 623.08, 1471.09, 661.68, 477.97, 0.000, 0.000, 0.000, 19:43:07.761, 1582467187761
31, 651.76, 1489.88, 675.54, 489.57, 0.000, 0.000, 0.000, 19:43:07.777, 1582467187777
32, 655.85, 1486.62, 683.81, 508.03, 0.000, 0.000, 0.000, 19:43:07.777, 1582467187777
33, 664.28, 1509.73, 693.81, 510.17, 0.000, 0.000, 0.000, 19:43:07.777, 1582467187777
34, 667.97, 1509.53, 690.93, 523.02, 0.000, 0.000, 0.000, 19:43:07.778, 1582467187778
35, 670.50, 1480.57, 695.88, 518.94, 0.000, 0.000, 0.000, 19:43:07.791, 1582467187791
36, 673.29, 1509.29, 704.23, 541.68, 0.000, 0.000, 0.000, 19:43:07.791, 1582467187791
37, 676.86, 1495.66, 709.98, 545.07, 0.000, 0.000, 0.000, 19:43:07.807, 1582467187807
38, 669.32, 1495.60, 707.52, 541.54, 0.000, 0.000, 0.000, 19:43:07.807, 1582467187807
39, 677.01, 1510.41, 719.51, 572.90, 0.000, 0.000, 0.000, 19:43:07.807, 1582467187807
40, 693.61, 1528.43, 726.44, 597.04, 0.000, 0.000, 0.000, 19:43:07.807, 1582467187807
41, 717.66, 1548.67, 742.87, 599.88, 0.000, 0.000, 0.000, 19:43:07.821, 1582467187821
42, 693.56, 1550.10, 727.32, 588.38, 0.000, 0.000, 0.000, 19:43:07.821, 1582467187821
43, 703.12, 1532.37, 728.64, 605.58, 0.000, 0.000, 0.000, 19:43:07.837, 1582467187837
44, 683.73, 1529.51, 725.08, 590.98, 0.000, 0.000, 0.000, 19:43:07.837, 1582467187837
45, 668.35, 1495.39, 718.45, 590.07, 0.000, 0.000, 0.000, 19:43:07.837, 1582467187837
46, 671.57, 1490.37, 718.25, 603.72, 0.000, 0.000, 0.000, 19:43:07.837, 1582467187837
47, 675.75, 1480.98, 724.24, 609.06, 0.000, 0.000, 0.000, 19:43:07.851, 1582467187851
48, 686.24, 1514.28, 731.31, 631.38, 0.000, 0.000, 0.000, 19:43:07.851, 1582467187851
49, 696.13, 1526.67, 736.38, 631.21, 0.000, 0.000, 0.000, 19:43:07.867, 1582467187867
50, 704.41, 1528.93, 734.18, 644.67, 0.000, 0.000, 0.000, 19:43:07.867, 1582467187867
51, 717.80, 1520.77, 747.18, 666.15, 0.000, 0.000, 0.000, 19:43:07.868, 1582467187868
52, 698.03, 1509.21, 732.16, 644.08, 0.000, 0.000, 0.000, 19:43:07.868, 1582467187868
53, 729.57, 1526.51, 758.94, 670.09, 0.000, 0.000, 0.000, 19:43:07.881, 1582467187881
54, 718.52, 1547.38, 745.73, 691.47, 0.000, 0.000, 0.000, 19:43:07.881, 1582467187881
55, 720.64, 1520.81, 746.69, 686.71, 0.000, 0.000, 0.000, 19:43:07.897, 1582467187897
56, 768.05, 1614.27, 788.40, 703.99, 0.000, 0.000, 0.000, 19:43:07.897, 1582467187897
57, 747.76, 1574.28, 785.10, 721.48, 0.000, 0.000, 0.000, 19:43:07.897, 1582467187897
58, 715.53, 1474.05, 742.89, 704.70, 0.000, 0.000, 0.000, 19:43:07.897, 1582467187897
59, 726.97, 1500.65, 753.42, 689.60, 0.000, 0.000, 0.000, 19:43:07.911, 1582467187911
60, 749.65, 1556.00, 776.55, 718.17, 0.000, 0.000, 0.000, 19:43:07.911, 1582467187911
61, 771.43, 1583.51, 789.16, 739.20, 0.000, 0.000, 0.000, 19:43:07.927, 1582467187927
62, 728.25, 1462.50, 742.03, 720.88, 0.000, 0.000, 0.000, 19:43:07.927, 1582467187927
63, 727.83, 1469.07, 750.49, 732.71, 0.000, 0.000, 0.000, 19:43:07.928, 1582467187928
64, 738.57, 1494.21, 757.50, 728.23, 0.000, 0.000, 0.000, 19:43:07.928, 1582467187928
65, 749.51, 1494.85, 768.17, 745.33, 0.000, 0.000, 0.000, 19:43:07.941, 1582467187941
66, 748.24, 1513.96, 759.73, 743.97, 0.000, 0.000, 0.000, 19:43:07.941, 1582467187941
67, 774.52, 1523.07, 782.39, 759.98, 0.000, 0.000, 0.000, 19:43:07.957, 1582467187957
68, 776.34, 1533.46, 786.63, 774.93, 0.000, 0.000, 0.000, 19:43:07.957, 1582467187957
69, 773.53, 1536.66, 785.50, 769.45, 0.000, 0.000, 0.000, 19:43:07.958, 1582467187958
70, 775.14, 1524.82, 781.01, 763.52, 0.000, 0.000, 0.000, 19:43:07.958, 1582467187958
71, 791.78, 1525.68, 793.59, 781.82, 0.000, 0.000, 0.000, 19:43:07.971, 1582467187971
72, 786.13, 1548.21, 798.57, 794.19, 0.000, 0.000, 0.000, 19:43:07.971, 1582467187971
73, 789.12, 1531.05, 796.82, 783.09, 0.000, 0.000, 0.000, 19:43:07.987, 1582467187987
74, 803.32, 1555.20, 802.74, 788.89, 0.000, 0.000, 0.000, 19:43:07.987, 1582467187987
75, 748.31, 1449.37, 757.95, 753.13, 0.000, 0.000, 0.000, 19:43:07.988, 1582467187988
76, 749.13, 1446.18, 762.96, 756.45, 0.000, 0.000, 0.000, 19:43:07.988, 1582467187988
77, 761.38, 1462.35, 776.99, 765.16, 0.000, 0.000, 0.000, 19:43:08.001, 1582467188001
78, 731.69, 1428.77, 745.09, 738.62, 0.000, 0.000, 0.000, 19:43:08.001, 1582467188001
79, 751.99, 1448.28, 764.99, 756.84, 0.000, 0.000, 0.000, 19:43:08.017, 1582467188017
80, 753.53, 1453.57, 770.34, 762.64, 0.000, 0.000, 0.000, 19:43:08.017, 1582467188017
81, 734.28, 1425.10, 744.73, 746.96, 0.000, 0.000, 0.000, 19:43:08.018, 1582467188018
82, 720.10, 1392.79, 732.67, 720.40, 0.000, 0.000, 0.000, 19:43:08.018, 1582467188018
83, 776.79, 1491.85, 782.01, 752.92, 0.000, 0.000, 0.000, 19:43:08.031, 1582467188031
84, 677.17, 1265.10, 678.58, 689.16, 0.000, 0.000, 0.000, 19:43:08.031, 1582467188031
85, 666.96, 1234.56, 664.83, 667.51, 0.000, 0.000, 0.000, 19:43:08.047, 1582467188047
86, 690.68, 1291.51, 690.21, 680.69, 0.000, 0.000, 0.000, 19:43:08.047, 1582467188047
87, 699.47, 1295.24, 693.52, 681.89, 0.000, 0.000, 0.000, 19:43:08.048, 1582467188048
88, 685.44, 1294.38, 685.81, 679.35, 0.000, 0.000, 0.000, 19:43:08.048, 1582467188048
89, 687.96, 1264.51, 683.60, 683.12, 0.000, 0.000, 0.000, 19:43:08.062, 1582467188062
90, 666.97, 1273.62, 671.62, 669.95, 0.000, 0.000, 0.000, 19:43:08.062, 1582467188062
91, 692.56, 1287.22, 695.39, 691.49, 0.000, 0.000, 0.000, 19:43:08.093, 1582467188093
92, 695.69, 1280.68, 687.85, 698.00, 0.000, 0.000, 0.000, 19:43:08.093, 1582467188093
93, 680.36, 1286.76, 685.65, 706.40, 0.000, 0.000, 0.000, 19:43:08.094, 1582467188094
94, 677.61, 1285.08, 685.73, 712.61, 0.000, 0.000, 0.000, 19:43:08.094, 1582467188094
95, 690.77, 1293.06, 695.69, 729.30, 0.000, 0.000, 0.000, 19:43:08.094, 1582467188094
96, 703.80, 1320.41, 718.41, 757.10, 0.000, 0.000, 0.000, 19:43:08.094, 1582467188094
97, 719.69, 1339.68, 730.02, 776.69, 0.000, 0.000, 0.000, 19:43:08.107, 1582467188107
98, 728.96, 1338.10, 737.96, 778.11, 0.000, 0.000, 0.000, 19:43:08.107, 1582467188107
99, 718.04, 1355.00, 727.02, 789.15, 0.000, 0.000, 0.000, 19:43:08.108, 1582467188108
100, 725.25, 1301.37, 727.93, 798.01, 0.000, 0.000, 0.000, 19:43:08.108, 1582467188108
101, 725.09, 1302.36, 733.59, 805.90, 0.000, 0.000, 0.000, 19:43:08.122, 1582467188122
102, 719.52, 1316.30, 731.01, 827.67, 0.000, 0.000, 0.000, 19:43:08.122, 1582467188122
103, 761.59, 1377.23, 766.99, 853.04, 0.000, 0.000, 0.000, 19:43:08.137, 1582467188137
104, 767.47, 1385.64, 770.12, 868.04, 0.000, 0.000, 0.000, 19:43:08.137, 1582467188137
105, 761.37, 1376.87, 775.34, 884.97, 0.000, 0.000, 0.000, 19:43:08.138, 1582467188138
106, 775.32, 1387.90, 781.33, 903.02, 0.000, 0.000, 0.000, 19:43:08.138, 1582467188138
107, 787.30, 1392.71, 786.07, 905.21, 0.000, 0.000, 0.000, 19:43:08.152, 1582467188152
108, 793.65, 1407.56, 781.32, 929.65, 0.000, 0.000, 0.000, 19:43:08.152, 1582467188152
109, 823.05, 1427.50, 810.11, 955.23, 0.000, 0.000, 0.000, 19:43:08.168, 1582467188168
110, 834.62, 1435.25, 829.35, 960.18, 0.000, 0.000, 0.000, 19:43:08.168, 1582467188168
111, 836.87, 1450.25, 831.55, 980.51, 0.000, 0.000, 0.000, 19:43:08.169, 1582467188169
112, 854.64, 1441.86, 843.68, 985.14, 0.000, 0.000, 0.000, 19:43:08.169, 1582467188169
113, 873.90, 1476.08, 871.31, 1018.01, 0.000, 0.000, 0.000, 19:43:08.182, 1582467188182
114, 850.21, 1465.75, 848.03, 1021.10, 0.000, 0.000, 0.000, 19:43:08.182, 1582467188182
115, 866.79, 1473.24, 863.07, 1032.94, 0.000, 0.000, 0.000, 19:43:08.197, 1582467188197
116, 862.32, 1449.57, 860.93, 1026.46, 0.000, 0.000, 0.000, 19:43:08.197, 1582467188197
117, 862.46, 1470.38, 865.89, 1044.99, 0.000, 0.000, 0.000, 19:43:08.198, 1582467188198
118, 866.52, 1471.29, 870.10, 1041.32, 0.000, 0.000, 0.000, 19:43:08.198, 1582467188198
119, 898.44, 1497.86, 892.36, 1077.65, 0.000, 0.000, 0.000, 19:43:08.212, 1582467188212
120, 897.41, 1515.50, 894.28, 1094.05, 0.000, 0.000, 0.000, 19:43:08.212, 1582467188212
121, 884.79, 1485.09, 885.82, 1099.62, 0.000, 0.000, 0.000, 19:43:08.227, 1582467188227
122, 878.89, 1466.26, 878.25, 1081.42, 0.000, 0.000, 0.000, 19:43:08.227, 1582467188227
123, 877.34, 1477.23, 885.64, 1096.08, 0.000, 0.000, 0.000, 19:43:08.228, 1582467188228
124, 891.27, 1488.55, 898.66, 1103.80, 0.000, 0.000, 0.000, 19:43:08.228, 1582467188228
125, 889.34, 1485.38, 896.11, 1100.59, 0.000, 0.000, 0.000, 19:43:08.242, 1582467188242
126, 878.80, 1502.32, 889.87, 1119.39, 0.000, 0.000, 0.000, 19:43:08.242, 1582467188242
127, 892.09, 1501.91, 909.38, 1126.03, 0.000, 0.000, 0.000, 19:43:08.257, 1582467188257
128, 900.31, 1496.45, 908.47, 1134.85, 0.000, 0.000, 0.000, 19:43:08.257, 1582467188257
129, 905.33, 1513.07, 920.05, 1151.22, 0.000, 0.000, 0.000, 19:43:08.258, 1582467188258
130, 904.15, 1516.65, 920.05, 1132.72, 0.000, 0.000, 0.000, 19:43:08.258, 1582467188258
131, 920.04, 1513.49, 924.77, 1162.16, 0.000, 0.000, 0.000, 19:43:08.272, 1582467188272
132, 900.67, 1512.87, 909.44, 1153.39, 0.000, 0.000, 0.000, 19:43:08.272, 1582467188272
133, 916.07, 1529.87, 914.17, 1158.46, 0.000, 0.000, 0.000, 19:43:08.287, 1582467188287
134, 919.54, 1527.03, 914.63, 1165.50, 0.000, 0.000, 0.000, 19:43:08.287, 1582467188287
135, 897.35, 1513.13, 901.98, 1153.37, 0.000, 0.000, 0.000, 19:43:08.288, 1582467188288
136, 926.20, 1531.95, 919.95, 1163.01, 0.000, 0.000, 0.000, 19:43:08.288, 1582467188288
137, 939.71, 1534.00, 930.07, 1183.07, 0.000, 0.000, 0.000, 19:43:08.302, 1582467188302
138, 929.18, 1546.67, 921.24, 1186.37, 0.000, 0.000, 0.000, 19:43:08.302, 1582467188302
139, 951.82, 1561.47, 937.25, 1185.67, 0.000, 0.000, 0.000, 19:43:08.317, 1582467188317
140, 936.17, 1519.75, 921.03, 1188.02, 0.000, 0.000, 0.000, 19:43:08.317, 1582467188317
141, 928.39, 1511.44, 921.11, 1190.17, 0.000, 0.000, 0.000, 19:43:08.318, 1582467188318
142, 939.30, 1535.26, 930.66, 1197.68, 0.000, 0.000, 0.000, 19:43:08.318, 1582467188318
143, 966.17, 1552.57, 952.91, 1211.86, 0.000, 0.000, 0.000, 19:43:08.332, 1582467188332
144, 953.41, 1558.32, 940.05, 1203.95, 0.000, 0.000, 0.000, 19:43:08.332, 1582467188332
145, 948.47, 1525.56, 931.94, 1212.46, 0.000, 0.000, 0.000, 19:43:08.347, 1582467188347
146, 956.65, 1540.58, 934.99, 1209.43, 0.000, 0.000, 0.000, 19:43:08.347, 1582467188347
147, 957.14, 1559.13, 948.94, 1209.52, 0.000, 0.000, 0.000, 19:43:08.348, 1582467188348
148, 970.62, 1577.72, 960.74, 1221.88, 0.000, 0.000, 0.000, 19:43:08.348, 1582467188348
149, 940.02, 1537.74, 943.68, 1191.09, 0.000, 0.000, 0.000, 19:43:08.362, 1582467188362
150, 946.43, 1565.54, 951.18, 1209.21, 0.000, 0.000, 0.000, 19:43:08.362, 1582467188362
151, 957.94, 1533.62, 946.54, 1212.87, 0.000, 0.000, 0.000, 19:43:08.377, 1582467188377
152, 964.03, 1535.62, 958.05, 1226.93, 0.000, 0.000, 0.000, 19:43:08.377, 1582467188377
153, 962.12, 1564.17, 965.49, 1236.55, 0.000, 0.000, 0.000, 19:43:08.392, 1582467188392
154, 928.01, 1539.32, 934.20, 1194.80, 0.000, 0.000, 0.000, 19:43:08.392, 1582467188392
155, 938.28, 1532.97, 948.90, 1204.20, 0.000, 0.000, 0.000, 19:43:08.393, 1582467188393
156, 913.18, 1504.20, 928.23, 1199.59, 0.000, 0.000, 0.000, 19:43:08.393, 1582467188393
157, 938.24, 1519.99, 934.70, 1202.93, 0.000, 0.000, 0.000, 19:43:08.407, 1582467188407
158, 949.87, 1525.45, 943.43, 1202.26, 0.000, 0.000, 0.000, 19:43:08.407, 1582467188407
159, 934.42, 1536.75, 939.59, 1195.67, 0.000, 0.000, 0.000, 19:43:08.408, 1582467188408
160, 945.38, 1545.03, 952.43, 1200.01, 0.000, 0.000, 0.000, 19:43:08.408, 1582467188408
161, 939.17, 1528.74, 940.07, 1186.20, 0.000, 0.000, 0.000, 19:43:08.422, 1582467188422
162, 906.09, 1489.46, 905.88, 1175.97, 0.000, 0.000, 0.000, 19:43:08.422, 1582467188422
163, 928.68, 1526.58, 932.22, 1179.17, 0.000, 0.000, 0.000, 19:43:08.437, 1582467188437
164, 945.61, 1542.11, 945.85, 1215.01, 0.000, 0.000, 0.000, 19:43:08.437, 1582467188437
165, 940.01, 1547.59, 947.62, 1207.64, 0.000, 0.000, 0.000, 19:43:08.438, 1582467188438
166, 942.94, 1568.66, 952.51, 1206.91, 0.000, 0.000, 0.000, 19:43:08.438, 1582467188438
167, 951.62, 1576.69, 971.53, 1208.60, 0.000, 0.000, 0.000, 19:43:08.452, 1582467188452
168, 954.74, 1566.88, 960.95, 1226.52, 0.000, 0.000, 0.000, 19:43:08.452, 1582467188452
169, 936.24, 1538.02, 944.58, 1202.07, 0.000, 0.000, 0.000, 19:43:08.467, 1582467188467
170, 952.43, 1588.71, 957.10, 1214.52, 0.000, 0.000, 0.000, 19:43:08.467, 1582467188467
171, 943.26, 1574.24, 953.41, 1216.36, 0.000, 0.000, 0.000, 19:43:08.468, 1582467188468
172, 935.85, 1540.88, 941.66, 1206.52, 0.000, 0.000, 0.000, 19:43:08.468, 1582467188468
173, 954.86, 1571.78, 958.92, 1210.18, 0.000, 0.000, 0.000, 19:43:08.482, 1582467188482
174, 944.93, 1597.18, 953.14, 1214.47, 0.000, 0.000, 0.000, 19:43:08.482, 1582467188482
175, 940.22, 1522.57, 936.53, 1197.54, 0.000, 0.000, 0.000, 19:43:08.498, 1582467188498
176, 950.29, 1585.31, 960.97, 1206.08, 0.000, 0.000, 0.000, 19:43:08.498, 1582467188498
177, 941.50, 1583.31, 951.75, 1216.47, 0.000, 0.000, 0.000, 19:43:08.498, 1582467188498
178, 927.17, 1542.42, 927.94, 1199.28, 0.000, 0.000, 0.000, 19:43:08.498, 1582467188498
179, 956.09, 1573.30, 954.99, 1211.14, 0.000, 0.000, 0.000, 19:43:08.512, 1582467188512
180, 926.72, 1555.13, 930.67, 1194.37, 0.000, 0.000, 0.000, 19:43:08.512, 1582467188512
181, 920.64, 1534.95, 921.12, 1185.68, 0.000, 0.000, 0.000, 19:43:08.527, 1582467188527
182, 949.58, 1597.60, 948.80, 1209.04, 0.000, 0.000, 0.000, 19:43:08.527, 1582467188527
183, 906.55, 1522.59, 916.32, 1184.62, 0.000, 0.000, 0.000, 19:43:08.542, 1582467188542
184, 936.83, 1569.38, 940.02, 1177.60, 0.000, 0.000, 0.000, 19:43:08.542, 1582467188542
185, 935.91, 1562.10, 937.65, 1193.17, 0.000, 0.000, 0.000, 19:43:08.543, 1582467188543
186, 921.93, 1574.81, 922.67, 1169.50, 0.000, 0.000, 0.000, 19:43:08.543, 1582467188543
187, 936.56, 1578.73, 934.79, 1179.43, 0.000, 0.000, 0.000, 19:43:08.558, 1582467188558
188, 939.03, 1591.69, 944.06, 1167.21, 0.000, 0.000, 0.000, 19:43:08.558, 1582467188558
189, 912.54, 1578.03, 918.49, 1168.45, 0.000, 0.000, 0.000, 19:43:08.558, 1582467188558
190, 891.42, 1541.04, 888.82, 1143.15, 0.000, 0.000, 0.000, 19:43:08.558, 1582467188558
191, 907.67, 1550.67, 907.86, 1139.89, 0.000, 0.000, 0.000, 19:43:08.572, 1582467188572
192, 921.71, 1601.57, 926.07, 1168.94, 0.000, 0.000, 0.000, 19:43:08.572, 1582467188572
193, 897.83, 1550.02, 900.80, 1153.55, 0.000, 0.000, 0.000, 19:43:08.588, 1582467188588
194, 899.26, 1557.17, 895.97, 1140.31, 0.000, 0.000, 0.000, 19:43:08.588, 1582467188588
195, 903.56, 1536.90, 896.58, 1145.16, 0.000, 0.000, 0.000, 19:43:08.588, 1582467188588
196, 900.82, 1524.69, 885.98, 1125.99, 0.000, 0.000, 0.000, 19:43:08.588, 1582467188588
197, 916.36, 1553.63, 906.94, 1137.76, 0.000, 0.000, 0.000, 19:43:08.602, 1582467188602
198, 896.13, 1549.43, 890.84, 1129.35, 0.000, 0.000, 0.000, 19:43:08.602, 1582467188602
199, 888.11, 1533.72, 890.73, 1122.64, 0.000, 0.000, 0.000, 19:43:08.617, 1582467188617
200, 903.81, 1549.28, 889.33, 1118.90, 0.000, 0.000, 0.000, 19:43:08.617, 1582467188617
0, 883.41, 1531.40, 877.53, 1114.23, 0.000, 0.000, 0.000, 19:43:08.618, 1582467188618
1, 886.66, 1538.69, 878.73, 1106.82, 0.000, 0.000, 0.000, 19:43:08.632, 1582467188632
2, 902.59, 1556.99, 900.05, 1118.33, 0.000, 0.000, 0.000, 19:43:08.632, 1582467188632
3, 888.29, 1536.34, 876.69, 1112.58, 0.000, 0.000, 0.000, 19:43:08.633, 1582467188633
4, 886.58, 1531.12, 868.23, 1086.38, 0.000, 0.000, 0.000, 19:43:08.633, 1582467188633
5, 901.32, 1544.35, 881.33, 1099.68, 0.000, 0.000, 0.000, 19:43:08.647, 1582467188647
6, 891.04, 1551.25, 875.74, 1104.55, 0.000, 0.000, 0.000, 19:43:08.647, 1582467188647
7, 897.97, 1563.52, 886.13, 1094.78, 0.000, 0.000, 0.000, 19:43:08.663, 1582467188663
8, 886.43, 1539.57, 865.87, 1070.58, 0.000, 0.000, 0.000, 19:43:08.663, 1582467188663
9, 880.35, 1545.43, 866.44, 1086.10, 0.000, 0.000, 0.000, 19:43:08.663, 1582467188663
10, 877.30, 1534.05, 867.86, 1086.92, 0.000, 0.000, 0.000, 19:43:08.663, 1582467188663
11, 889.41, 1554.45, 879.75, 1078.33, 0.000, 0.000, 0.000, 19:43:08.677, 1582467188677
12, 869.39, 1546.96, 860.15, 1065.54, 0.000, 0.000, 0.000, 19:43:08.677, 1582467188677
13, 869.35, 1551.80, 862.79, 1075.21, 0.000, 0.000, 0.000, 19:43:08.693, 1582467188693
14, 880.84, 1542.49, 860.07, 1062.15, 0.000, 0.000, 0.000, 19:43:08.693, 1582467188693
15, 875.82, 1542.33, 867.80, 1065.57, 0.000, 0.000, 0.000, 19:43:08.693, 1582467188693
16, 874.47, 1551.73, 866.55, 1080.31, 0.000, 0.000, 0.000, 19:43:08.693, 1582467188693
17, 865.37, 1540.15, 860.46, 1067.79, 0.000, 0.000, 0.000, 19:43:08.707, 1582467188707
18, 867.19, 1547.84, 861.28, 1065.99, 0.000, 0.000, 0.000, 19:43:08.707, 1582467188707
19, 867.25, 1545.87, 861.99, 1053.74, 0.000, 0.000, 0.000, 19:43:08.722, 1582467188722
20, 864.65, 1533.93, 844.94, 1051.89, 0.000, 0.000, 0.000, 19:43:08.722, 1582467188722
21, 858.56, 1552.33, 853.14, 1060.93, 0.000, 0.000, 0.000, 19:43:08.723, 1582467188723
22, 869.51, 1559.51, 859.29, 1063.59, 0.000, 0.000, 0.000, 19:43:08.723, 1582467188723
23, 874.36, 1560.45, 863.09, 1048.21, 0.000, 0.000, 0.000, 19:43:08.737, 1582467188737
24, 863.03, 1566.01, 842.78, 1067.85, 0.000, 0.000, 0.000, 19:43:08.737, 1582467188737
25, 853.56, 1558.20, 839.34, 1052.54, 0.000, 0.000, 0.000, 19:43:08.752, 1582467188752
26, 866.95, 1567.31, 843.37, 1052.74, 0.000, 0.000, 0.000, 19:43:08.752, 1582467188752
27, 868.73, 1561.23, 842.81, 1051.59, 0.000, 0.000, 0.000, 19:43:08.753, 1582467188753
28, 862.01, 1573.99, 846.42, 1063.74, 0.000, 0.000, 0.000, 19:43:08.753, 1582467188753
29, 870.57, 1577.62, 856.91, 1063.72, 0.000, 0.000, 0.000, 19:43:08.767, 1582467188767
30, 861.65, 1561.89, 841.42, 1045.60, 0.000, 0.000, 0.000, 19:43:08.767, 1582467188767
31, 867.73, 1570.08, 851.14, 1046.23, 0.000, 0.000, 0.000, 19:43:08.783, 1582467188783
32, 864.61, 1564.22, 834.16, 1041.52, 0.000, 0.000, 0.000, 19:43:08.783, 1582467188783
33, 867.04, 1585.76, 842.83, 1050.51, 0.000, 0.000, 0.000, 19:43:08.783, 1582467188783
34, 871.48, 1584.63, 855.80, 1056.52, 0.000, 0.000, 0.000, 19:43:08.783, 1582467188783
35, 877.72, 1569.74, 853.03, 1052.50, 0.000, 0.000, 0.000, 19:43:08.797, 1582467188797
36, 861.12, 1592.71, 844.87, 1046.41, 0.000, 0.000, 0.000, 19:43:08.797, 1582467188797
37, 880.22, 1591.39, 845.32, 1051.66, 0.000, 0.000, 0.000, 19:43:08.813, 1582467188813
38, 871.20, 1569.13, 841.70, 1046.98, 0.000, 0.000, 0.000, 19:43:08.813, 1582467188813
39, 860.89, 1569.05, 842.22, 1038.12, 0.000, 0.000, 0.000, 19:43:08.813, 1582467188813
40, 860.01, 1574.46, 838.58, 1037.53, 0.000, 0.000, 0.000, 19:43:08.813, 1582467188813
41, 870.90, 1577.56, 836.18, 1039.61, 0.000, 0.000, 0.000, 19:43:08.827, 1582467188827
42, 855.45, 1579.75, 829.75, 1038.02, 0.000, 0.000, 0.000, 19:43:08.827, 1582467188827
43, 864.78, 1583.71, 843.76, 1047.17, 0.000, 0.000, 0.000, 19:43:08.843, 1582467188843
44, 867.97, 1591.02, 835.35, 1049.78, 0.000, 0.000, 0.000, 19:43:08.843, 1582467188843
45, 853.90, 1579.06, 835.72, 1041.61, 0.000, 0.000, 0.000, 19:43:08.843, 1582467188843
46, 872.32, 1587.50, 844.59, 1050.90, 0.000, 0.000, 0.000, 19:43:08.843, 1582467188843
47, 876.83, 1588.29, 854.20, 1049.58, 0.000, 0.000, 0.000, 19:43:08.857, 1582467188857
48, 855.20, 1585.89, 836.18, 1050.67, 0.000, 0.000, 0.000, 19:43:08.857, 1582467188857
49, 869.81, 1595.57, 844.85, 1042.62, 0.000, 0.000, 0.000, 19:43:08.872, 1582467188872
50, 870.95, 1593.83, 851.28, 1047.48, 0.000, 0.000, 0.000, 19:43:08.872, 1582467188872
51, 871.46, 1584.03, 849.06, 1049.56, 0.000, 0.000, 0.000, 19:43:08.873, 1582467188873
52, 885.90, 1603.09, 850.92, 1058.86, 0.000, 0.000, 0.000, 19:43:08.873, 1582467188873
53, 867.44, 1583.19, 846.47, 1050.87, 0.000, 0.000, 0.000, 19:43:08.887, 1582467188887
54, 862.71, 1600.85, 844.04, 1045.33, 0.000, 0.000, 0.000, 19:43:08.887, 1582467188887
55, 866.17, 1613.33, 858.64, 1063.57, 0.000, 0.000, 0.000, 19:43:08.902, 1582467188902
56, 872.93, 1612.92, 849.75, 1061.96, 0.000, 0.000, 0.000, 19:43:08.902, 1582467188902
57, 849.51, 1591.71, 827.39, 1039.44, 0.000, 0.000, 0.000, 19:43:08.903, 1582467188903
58, 859.72, 1588.46, 833.36, 1052.64, 0.000, 0.000, 0.000, 19:43:08.903, 1582467188903
59, 872.98, 1594.57, 850.04, 1061.20, 0.000, 0.000, 0.000, 19:43:08.917, 1582467188917
60, 840.34, 1579.61, 819.82, 1037.43, 0.000, 0.000, 0.000, 19:43:08.917, 1582467188917
61, 867.71, 1601.68, 850.98, 1069.06, 0.000, 0.000, 0.000, 19:43:08.932, 1582467188932
62, 880.16, 1607.89, 862.30, 1073.71, 0.000, 0.000, 0.000, 19:43:08.932, 1582467188932
63, 877.68, 1572.95, 851.58, 1056.60, 0.000, 0.000, 0.000, 19:43:08.933, 1582467188933
64, 876.37, 1591.40, 844.24, 1059.58, 0.000, 0.000, 0.000, 19:43:08.933, 1582467188933
65, 882.25, 1589.34, 853.94, 1067.08, 0.000, 0.000, 0.000, 19:43:08.947, 1582467188947
66, 870.84, 1586.83, 850.73, 1062.06, 0.000, 0.000, 0.000, 19:43:08.947, 1582467188947
67, 883.42, 1605.42, 862.77, 1069.97, 0.000, 0.000, 0.000, 19:43:08.963, 1582467188963
68, 876.67, 1608.08, 850.49, 1078.58, 0.000, 0.000, 0.000, 19:43:08.963, 1582467188963
69, 858.19, 1585.26, 836.30, 1046.22, 0.000, 0.000, 0.000, 19:43:08.963, 1582467188963
70, 880.93, 1609.20, 855.20, 1065.80, 0.000, 0.000, 0.000, 19:43:08.963, 1582467188963
71, 879.93, 1596.28, 859.70, 1064.48, 0.000, 0.000, 0.000, 19:43:08.977, 1582467188977
72, 869.02, 1596.43, 833.20, 1066.08, 0.000, 0.000, 0.000, 19:43:08.977, 1582467188977
73, 865.58, 1583.80, 836.67, 1055.35, 0.000, 0.000, 0.000, 19:43:08.993, 1582467188993
74, 871.60, 1601.26, 844.83, 1059.37, 0.000, 0.000, 0.000, 19:43:08.993, 1582467188993
75, 873.96, 1594.60, 847.09, 1063.66, 0.000, 0.000, 0.000, 19:43:08.993, 1582467188993
76, 869.38, 1597.69, 834.84, 1062.12, 0.000, 0.000, 0.000, 19:43:08.993, 1582467188993
77, 865.05, 1577.58, 834.55, 1053.72, 0.000, 0.000, 0.000, 19:43:09.007, 1582467189007
78, 857.80, 1578.74, 830.08, 1053.24, 0.000, 0.000, 0.000, 19:43:09.007, 1582467189007
79, 867.40, 1591.55, 846.82, 1059.29, 0.000, 0.000, 0.000, 19:43:09.023, 1582467189023
80, 865.75, 1589.16, 844.00, 1060.17, 0.000, 0.000, 0.000, 19:43:09.023, 1582467189023
81, 863.57, 1581.44, 845.36, 1058.93, 0.000, 0.000, 0.000, 19:43:09.023, 1582467189023
82, 871.27, 1586.95, 846.07, 1058.14, 0.000, 0.000, 0.000, 19:43:09.023, 1582467189023
83, 894.50, 1614.23, 866.79, 1072.09, 0.000, 0.000, 0.000, 19:43:09.037, 1582467189037
84, 875.21, 1617.11, 852.14, 1068.18, 0.000, 0.000, 0.000, 19:43:09.037, 1582467189037
85, 860.87, 1591.33, 843.31, 1059.22, 0.000, 0.000, 0.000, 19:43:09.053, 1582467189053
86, 878.27, 1591.59, 845.65, 1050.49, 0.000, 0.000, 0.000, 19:43:09.053, 1582467189053
87, 881.58, 1582.47, 850.77, 1056.33, 0.000, 0.000, 0.000, 19:43:09.053, 1582467189053
88, 879.25, 1577.53, 840.89, 1055.67, 0.000, 0.000, 0.000, 19:43:09.053, 1582467189053
89, 884.35, 1571.34, 846.38, 1051.51, 0.000, 0.000, 0.000, 19:43:09.067, 1582467189067
90, 887.65, 1585.99, 843.06, 1052.37, 0.000, 0.000, 0.000, 19:43:09.067, 1582467189067
91, 903.29, 1619.46, 872.92, 1071.48, 0.000, 0.000, 0.000, 19:43:09.083, 1582467189083
92, 875.93, 1576.51, 843.03, 1049.48, 0.000, 0.000, 0.000, 19:43:09.083, 1582467189083
93, 865.39, 1579.84, 841.88, 1048.05, 0.000, 0.000, 0.000, 19:43:09.083, 1582467189083
94, 874.74, 1574.52, 845.37, 1044.52, 0.000, 0.000, 0.000, 19:43:09.083, 1582467189083
95, 880.66, 1558.47, 847.44, 1048.18, 0.000, 0.000, 0.000, 19:43:09.097, 1582467189097
96, 871.06, 1580.83, 842.14, 1053.97, 0.000, 0.000, 0.000, 19:43:09.097, 1582467189097
97, 878.13, 1586.18, 847.37, 1041.24, 0.000, 0.000, 0.000, 19:43:09.113, 1582467189113
98, 873.43, 1572.36, 845.47, 1047.80, 0.000, 0.000, 0.000, 19:43:09.113, 1582467189113
99, 888.88, 1588.00, 857.80, 1064.74, 0.000, 0.000, 0.000, 19:43:09.113, 1582467189113
100, 882.19, 1587.34, 848.77, 1048.08, 0.000, 0.000, 0.000, 19:43:09.113, 1582467189113
101, 878.76, 1572.45, 845.55, 1046.04, 0.000, 0.000, 0.000, 19:43:09.127, 1582467189127
102, 876.02, 1587.95, 854.78, 1055.02, 0.000, 0.000, 0.000, 19:43:09.127, 1582467189127
103, 893.00, 1603.53, 861.27, 1060.72, 0.000, 0.000, 0.000, 19:43:09.143, 1582467189143
104, 878.27, 1587.12, 849.28, 1068.53, 0.000, 0.000, 0.000, 19:43:09.143, 1582467189143
105, 862.89, 1565.16, 838.89, 1054.07, 0.000, 0.000, 0.000, 19:43:09.143, 1582467189143
106, 881.78, 1583.98, 855.27, 1033.40, 0.000, 0.000, 0.000, 19:43:09.143, 1582467189143
107, 888.59, 1584.54, 860.39, 1041.52, 0.000, 0.000, 0.000, 19:43:09.157, 1582467189157
108, 868.38, 1599.82, 848.60, 1047.84, 0.000, 0.000, 0.000, 19:43:09.157, 1582467189157
109, 866.77, 1589.47, 841.91, 1031.41, 0.000, 0.000, 0.000, 19:43:09.173, 1582467189173
110, 856.63, 1564.96, 837.76, 1009.08, 0.000, 0.000, 0.000, 19:43:09.173, 1582467189173
111, 868.20, 1575.57, 841.85, 1024.64, 0.000, 0.000, 0.000, 19:43:09.173, 1582467189173
112, 844.58, 1550.41, 819.57, 1001.90, 0.000, 0.000, 0.000, 19:43:09.173, 1582467189173
113, 860.38, 1552.12, 823.60, 994.67, 0.000, 0.000, 0.000, 19:43:09.187, 1582467189187
114, 822.59, 1515.44, 801.15, 965.38, 0.000, 0.000, 0.000, 19:43:09.187, 1582467189187
115, 820.07, 1494.39, 793.98, 958.99, 0.000, 0.000, 0.000, 19:43:09.203, 1582467189203
116, 834.23, 1543.41, 814.34, 981.43, 0.000, 0.000, 0.000, 19:43:09.203, 1582467189203
117, 821.24, 1522.86, 803.56, 956.24, 0.000, 0.000, 0.000, 19:43:09.203, 1582467189203
118, 831.21, 1528.63, 810.10, 970.40, 0.000, 0.000, 0.000, 19:43:09.203, 1582467189203
119, 834.55, 1517.36, 810.57, 962.03, 0.000, 0.000, 0.000, 19:43:09.217, 1582467189217
120, 814.81, 1531.10, 795.82, 952.52, 0.000, 0.000, 0.000, 19:43:09.217, 1582467189217
121, 831.45, 1539.97, 804.70, 952.52, 0.000, 0.000, 0.000, 19:43:09.233, 1582467189233
122, 812.95, 1508.01, 796.12, 946.19, 0.000, 0.000, 0.000, 19:43:09.233, 1582467189233
123, 810.83, 1499.77, 789.40, 939.89, 0.000, 0.000, 0.000, 19:43:09.233, 1582467189233
124, 812.10, 1530.02, 802.84, 941.10, 0.000, 0.000, 0.000, 19:43:09.233, 1582467189233
125, 813.66, 1532.81, 802.78, 946.68, 0.000, 0.000, 0.000, 19:43:09.247, 1582467189247
126, 822.04, 1540.39, 804.61, 949.24, 0.000, 0.000, 0.000, 19:43:09.247, 1582467189247
127, 818.09, 1524.73, 801.55, 931.87, 0.000, 0.000, 0.000, 19:43:09.263, 1582467189263
128, 809.02, 1514.08, 786.13, 930.72, 0.000, 0.000, 0.000, 19:43:09.263, 1582467189263
129, 803.71, 1506.24, 782.46, 933.70, 0.000, 0.000, 0.000, 19:43:09.263, 1582467189263
130, 817.42, 1507.58, 797.43, 935.27, 0.000, 0.000, 0.000, 19:43:09.263, 1582467189263
131, 834.09, 1543.87, 817.70, 936.40, 0.000, 0.000, 0.000, 19:43:09.277, 1582467189277
132, 802.05, 1518.23, 788.46, 925.50, 0.000, 0.000, 0.000, 19:43:09.277, 1582467189277
133, 817.51, 1520.91, 791.79, 928.69, 0.000, 0.000, 0.000, 19:43:09.293, 1582467189293
134, 829.76, 1524.30, 802.79, 923.29, 0.000, 0.000, 0.000, 19:43:09.293, 1582467189293
135, 819.30, 1512.06, 802.31, 929.04, 0.000, 0.000, 0.000, 19:43:09.293, 1582467189293
136, 813.49, 1531.98, 792.80, 914.12, 0.000, 0.000, 0.000, 19:43:09.293, 1582467189293
137, 827.51, 1548.08, 802.93, 916.60, 0.000, 0.000, 0.000, 19:43:09.307, 1582467189307
138, 818.76, 1542.71, 799.70, 921.71, 0.000, 0.000, 0.000, 19:43:09.307, 1582467189307
139, 811.66, 1494.65, 781.50, 892.41, 0.000, 0.000, 0.000, 19:43:09.323, 1582467189323
140, 813.24, 1527.05, 792.56, 899.65, 0.000, 0.000, 0.000, 19:43:09.323, 1582467189323
141, 801.15, 1513.27, 782.24, 891.82, 0.000, 0.000, 0.000, 19:43:09.323, 1582467189323
142, 808.05, 1519.84, 788.78, 897.50, 0.000, 0.000, 0.000, 19:43:09.323, 1582467189323
143, 817.48, 1528.49, 797.60, 896.58, 0.000, 0.000, 0.000, 19:43:09.337, 1582467189337
144, 788.61, 1512.70, 769.20, 857.76, 0.000, 0.000, 0.000, 19:43:09.337, 1582467189337
145, 812.01, 1544.62, 795.80, 903.92, 0.000, 0.000, 0.000, 19:43:09.353, 1582467189353
146, 817.08, 1534.21, 793.20, 883.50, 0.000, 0.000, 0.000, 19:43:09.353, 1582467189353
147, 810.11, 1536.46, 802.34, 890.24, 0.000, 0.000, 0.000, 19:43:09.353, 1582467189353
148, 810.26, 1549.25, 793.42, 886.80, 0.000, 0.000, 0.000, 19:43:09.353, 1582467189353
149, 792.05, 1522.77, 784.57, 854.35, 0.000, 0.000, 0.000, 19:43:09.367, 1582467189367
150, 799.25, 1539.44, 790.09, 885.87, 0.000, 0.000, 0.000, 19:43:09.367, 1582467189367
151, 812.95, 1549.92, 805.01, 889.05, 0.000, 0.000, 0.000, 19:43:09.384, 1582467189384
152, 782.55, 1519.18, 767.93, 838.37, 0.000, 0.000, 0.000, 19:43:09.384, 1582467189384
153, 784.97, 1517.65, 769.71, 844.96, 0.000, 0.000, 0.000, 19:43:09.398, 1582467189398
154, 777.06, 1505.63, 765.48, 826.96, 0.000, 0.000, 0.000, 19:43:09.398, 1582467189398
155, 795.48, 1529.08, 788.80, 838.77, 0.000, 0.000, 0.000, 19:43:09.398, 1582467189398
156, 780.91, 1527.93, 767.90, 838.65, 0.000, 0.000, 0.000, 19:43:09.398, 1582467189398
157, 785.39, 1527.64, 767.51, 840.72, 0.000, 0.000, 0.000, 19:43:09.413, 1582467189413
158, 781.55, 1518.91, 769.90, 810.20, 0.000, 0.000, 0.000, 19:43:09.413, 1582467189413
159, 773.79, 1518.49, 764.25, 821.07, 0.000, 0.000, 0.000, 19:43:09.413, 1582467189413
160, 766.43, 1514.61, 756.99, 815.26, 0.000, 0.000, 0.000, 19:43:09.413, 1582467189413
161, 761.45, 1489.92, 755.70, 789.28, 0.000, 0.000, 0.000, 19:43:09.427, 1582467189427
162, 753.23, 1507.46, 757.89, 793.17, 0.000, 0.000, 0.000, 19:43:09.427, 1582467189427
163, 795.95, 1552.68, 795.17, 823.60, 0.000, 0.000, 0.000, 19:43:09.443, 1582467189443
164, 786.41, 1520.60, 768.22, 800.85, 0.000, 0.000, 0.000, 19:43:09.443, 1582467189443
165, 754.65, 1496.46, 743.26, 772.51, 0.000, 0.000, 0.000, 19:43:09.443, 1582467189443
166, 756.62, 1508.42, 746.70, 775.52, 0.000, 0.000, 0.000, 19:43:09.443, 1582467189443
167, 760.77, 1504.99, 751.79, 761.18, 0.000, 0.000, 0.000, 19:43:09.457, 1582467189457
168, 740.32, 1505.62, 736.84, 758.57, 0.000, 0.000, 0.000, 19:43:09.457, 1582467189457
169, 759.95, 1524.58, 749.14, 762.70, 0.000, 0.000, 0.000, 19:43:09.473, 1582467189473
170, 748.70, 1479.30, 731.60, 746.48, 0.000, 0.000, 0.000, 19:43:09.473, 1582467189473
171, 733.22, 1475.19, 732.93, 748.52, 0.000, 0.000, 0.000, 19:43:09.473, 1582467189473
172, 735.37, 1492.23, 733.97, 745.42, 0.000, 0.000, 0.000, 19:43:09.473, 1582467189473
173, 740.00, 1492.90, 733.53, 736.22, 0.000, 0.000, 0.000, 19:43:09.487, 1582467189487
174, 738.50, 1498.33, 733.21, 728.43, 0.000, 0.000, 0.000, 19:43:09.487, 1582467189487
175, 738.64, 1484.01, 730.68, 730.64, 0.000, 0.000, 0.000, 19:43:09.503, 1582467189503
176, 732.32, 1492.15, 724.10, 726.82, 0.000, 0.000, 0.000, 19:43:09.503, 1582467189503
177, 735.58, 1515.77, 740.17, 732.23, 0.000, 0.000, 0.000, 19:43:09.503, 1582467189503
178, 730.61, 1471.12, 724.74, 706.79, 0.000, 0.000, 0.000, 19:43:09.503, 1582467189503
179, 735.53, 1457.31, 718.93, 694.53, 0.000, 0.000, 0.000, 19:43:09.517, 1582467189517
180, 693.72, 1447.46, 687.92, 663.97, 0.000, 0.000, 0.000, 19:43:09.517, 1582467189517
181, 700.63, 1450.43, 695.09, 676.31, 0.000, 0.000, 0.000, 19:43:09.534, 1582467189534
182, 690.87, 1425.42, 685.37, 652.41, 0.000, 0.000, 0.000, 19:43:09.534, 1582467189534
183, 692.97, 1441.39, 695.86, 658.26, 0.000, 0.000, 0.000, 19:43:09.535, 1582467189535
184, 694.03, 1452.10, 689.71, 661.56, 0.000, 0.000, 0.000, 19:43:09.535, 1582467189535
185, 677.01, 1403.28, 676.16, 640.96, 0.000, 0.000, 0.000, 19:43:09.547, 1582467189547
186, 667.06, 1418.73, 665.29, 615.26, 0.000, 0.000, 0.000, 19:43:09.547, 1582467189547
187, 687.54, 1430.93, 684.07, 626.70, 0.000, 0.000, 0.000, 19:43:09.563, 1582467189563
188, 673.20, 1419.98, 670.65, 625.03, 0.000, 0.000, 0.000, 19:43:09.563, 1582467189563
189, 661.90, 1423.42, 668.51, 625.10, 0.000, 0.000, 0.000, 19:43:09.563, 1582467189563
190, 663.48, 1418.80, 666.33, 605.22, 0.000, 0.000, 0.000, 19:43:09.563, 1582467189563
191, 668.91, 1407.13, 663.29, 595.69, 0.000, 0.000, 0.000, 19:43:09.577, 1582467189577
192, 655.20, 1415.47, 648.06, 602.11, 0.000, 0.000, 0.000, 19:43:09.577, 1582467189577
193, 661.98, 1418.53, 661.56, 617.84, 0.000, 0.000, 0.000, 19:43:09.593, 1582467189593
194, 642.56, 1379.44, 641.91, 576.91, 0.000, 0.000, 0.000, 19:43:09.593, 1582467189593
195, 653.19, 1406.50, 660.17, 598.59, 0.000, 0.000, 0.000, 19:43:09.593, 1582467189593
196, 636.88, 1407.60, 645.59, 568.09, 0.000, 0.000, 0.000, 19:43:09.593, 1582467189593
197, 662.23, 1427.78, 666.55, 586.28, 0.000, 0.000, 0.000, 19:43:09.607, 1582467189607
198, 651.01, 1413.52, 653.66, 588.89, 0.000, 0.000, 0.000, 19:43:09.607, 1582467189607
199, 639.76, 1403.39, 655.31, 569.89, 0.000, 0.000, 0.000, 19:43:09.623, 1582467189623
200, 638.98, 1403.02, 647.63, 564.34, 0.000, 0.000, 0.000, 19:43:09.623, 1582467189623
0, 645.38, 1407.05, 650.43, 575.36, 0.000, 0.000, 0.000, 19:43:09.623, 1582467189623
1, 658.05, 1419.50, 655.82, 561.77, 0.000, 0.000, 0.000, 19:43:09.654, 1582467189654
2, 664.64, 1413.86, 666.07, 572.33, 0.000, 0.000, 0.000, 19:43:09.654, 1582467189654
3, 644.87, 1426.93, 654.24, 568.26, 0.000, 0.000, 0.000, 19:43:09.654, 1582467189654
4, 668.92, 1479.24, 676.87, 583.26, 0.000, 0.000, 0.000, 19:43:09.654, 1582467189654
5, 673.22, 1451.84, 679.61, 592.46, 0.000, 0.000, 0.000, 19:43:09.655, 1582467189655
6, 657.96, 1414.87, 662.90, 576.61, 0.000, 0.000, 0.000, 19:43:09.655, 1582467189655
7, 651.95, 1430.01, 654.45, 571.02, 0.000, 0.000, 0.000, 19:43:09.668, 1582467189668
8, 640.73, 1387.93, 642.58, 548.36, 0.000, 0.000, 0.000, 19:43:09.668, 1582467189668
9, 626.24, 1391.61, 626.11, 547.69, 0.000, 0.000, 0.000, 19:43:09.669, 1582467189669
10, 656.20, 1435.19, 662.89, 566.22, 0.000, 0.000, 0.000, 19:43:09.669, 1582467189669
11, 654.73, 1438.17, 663.64, 571.34, 0.000, 0.000, 0.000, 19:43:09.682, 1582467189682
12, 620.94, 1394.95, 620.31, 535.99, 0.000, 0.000, 0.000, 19:43:09.682, 1582467189682
13, 630.48, 1391.64, 633.33, 536.50, 0.000, 0.000, 0.000, 19:43:09.699, 1582467189699
14, 640.88, 1395.97, 637.91, 537.02, 0.000, 0.000, 0.000, 19:43:09.699, 1582467189699
15, 647.16, 1415.33, 648.96, 534.88, 0.000, 0.000, 0.000, 19:43:09.699, 1582467189699
16, 642.76, 1428.07, 645.48, 536.11, 0.000, 0.000, 0.000, 19:43:09.699, 1582467189699
17, 650.97, 1421.03, 662.17, 542.91, 0.000, 0.000, 0.000, 19:43:09.712, 1582467189712
18, 643.58, 1432.36, 656.94, 542.70, 0.000, 0.000, 0.000, 19:43:09.712, 1582467189712
19, 654.86, 1454.08, 663.20, 555.08, 0.000, 0.000, 0.000, 19:43:09.728, 1582467189728
20, 650.65, 1428.77, 650.94, 542.93, 0.000, 0.000, 0.000, 19:43:09.728, 1582467189728
21, 662.58, 1453.45, 670.10, 558.46, 0.000, 0.000, 0.000, 19:43:09.728, 1582467189728
22, 656.15, 1451.18, 664.69, 548.04, 0.000, 0.000, 0.000, 19:43:09.728, 1582467189728
23, 666.09, 1469.36, 676.45, 558.43, 0.000, 0.000, 0.000, 19:43:09.742, 1582467189742
24, 656.77, 1470.38, 657.58, 543.97, 0.000, 0.000, 0.000, 19:43:09.742, 1582467189742
25, 660.70, 1444.94, 663.54, 539.64, 0.000, 0.000, 0.000, 19:43:09.758, 1582467189758
26, 666.07, 1450.39, 668.74, 541.97, 0.000, 0.000, 0.000, 19:43:09.758, 1582467189758
27, 640.26, 1429.96, 652.45, 518.05, 0.000, 0.000, 0.000, 19:43:09.758, 1582467189758
28, 658.97, 1475.39, 666.81, 529.58, 0.000, 0.000, 0.000, 19:43:09.758, 1582467189758
29, 658.75, 1438.50, 662.32, 523.14, 0.000, 0.000, 0.000, 19:43:09.772, 1582467189772
30, 630.60, 1421.41, 643.86, 512.82, 0.000, 0.000, 0.000, 19:43:09.772, 1582467189772
31, 614.27, 1385.58, 619.30, 477.85, 0.000, 0.000, 0.000, 19:43:09.788, 1582467189788
32, 587.97, 1354.86, 593.46, 429.68, 0.000, 0.000, 0.000, 19:43:09.788, 1582467189788
33, 586.93, 1353.86, 601.39, 430.24, 0.000, 0.000, 0.000, 19:43:09.803, 1582467189803
34, 596.89, 1372.04, 605.45, 428.36, 0.000, 0.000, 0.000, 19:43:09.803, 1582467189803
35, 554.79, 1304.54, 565.65, 373.80, 0.000, 0.000, 0.000, 19:43:09.804, 1582467189804
36, 537.50, 1304.53, 546.43, 363.17, 0.000, 0.000, 0.000, 19:43:09.804, 1582467189804
37, 510.75, 1226.10, 521.96, 324.47, 0.000, 0.000, 0.000, 19:43:09.818, 1582467189818
38, 518.71, 1231.82, 526.86, 307.29, 0.000, 0.000, 0.000, 19:43:09.818, 1582467189818
39, 469.37, 1205.12, 483.43, 276.97, 0.000, 0.000, 0.000, 19:43:09.819, 1582467189819
40, 433.60, 1138.64, 443.10, 214.72, 0.000, 0.000, 0.000, 19:43:09.819, 1582467189819
41, 417.27, 1075.99, 424.64, 167.55, 0.000, 0.000, 0.000, 19:43:09.832, 1582467189832
42, 392.98, 1071.98, 409.75, 146.14, 0.000, 0.000, 0.000, 19:43:09.832, 1582467189832
43, 351.02, 1007.90, 363.43, 85.48, 0.000, 0.000, 0.000, 19:43:09.848, 1582467189848
44, 331.83, 982.76, 335.70, 37.38, 0.000, 0.000, 0.000, 19:43:09.848, 1582467189848
45, 306.53, 934.57, 318.53, -13.25, 0.000, 0.000, 0.000, 19:43:09.849, 1582467189849
46, 286.32, 902.59, 291.27, -34.14, 0.000, 0.000, 0.000, 19:43:09.849, 1582467189849
47, 280.67, 908.66, 289.45, -42.87, 0.000, 0.000, 0.000, 19:43:09.862, 1582467189862
48, 236.10, 826.57, 242.93, -84.96, 0.000, 0.000, 0.000, 19:43:09.862, 1582467189862
49, 209.08, 770.00, 218.16, -141.91, 0.000, 0.000, 0.000, 19:43:09.878, 1582467189878
50, 206.96, 772.73, 209.39, -161.54, 0.000, 0.000, 0.000, 19:43:09.878, 1582467189878
51, 179.37, 746.49, 193.12, -169.85, 0.000, 0.000, 0.000, 19:43:09.879, 1582467189879
52, 186.85, 755.62, 194.26, -164.83, 0.000, 0.000, 0.000, 19:43:09.879, 1582467189879
53, 209.46, 811.46, 220.47, -169.81, 0.000, 0.000, 0.000, 19:43:09.892, 1582467189892
54, 163.10, 715.58, 172.76, -187.15, 0.000, 0.000, 0.000, 19:43:09.892, 1582467189892
55, 146.92, 691.88, 153.64, -205.31, 0.000, 0.000, 0.000, 19:43:09.908, 1582467189908
56, 173.43, 737.38, 179.12, -178.19, 0.000, 0.000, 0.000, 19:43:09.908, 1582467189908
57, 195.41, 784.02, 210.99, -149.78, 0.000, 0.000, 0.000, 19:43:09.908, 1582467189908
58, 225.82, 826.58, 237.85, -121.23, 0.000, 0.000, 0.000, 19:43:09.908, 1582467189908
59, 260.98, 877.11, 271.59, -70.83, 0.000, 0.000, 0.000, 19:43:09.922, 1582467189922
60, 310.70, 967.94, 323.68, 38.43, 0.000, 0.000, 0.000, 19:43:09.922, 1582467189922
61, 374.02, 1052.96, 384.02, 92.76, 0.000, 0.000, 0.000, 19:43:09.938, 1582467189938
62, 410.66, 1109.12, 413.65, 129.76, 0.000, 0.000, 0.000, 19:43:09.938, 1582467189938
63, 402.47, 1115.22, 413.99, 146.24, 0.000, 0.000, 0.000, 19:43:09.953, 1582467189953
64, 410.94, 1147.41, 430.79, 160.32, 0.000, 0.000, 0.000, 19:43:09.953, 1582467189953
65, 446.71, 1169.21, 461.16, 187.37, 0.000, 0.000, 0.000, 19:43:09.954, 1582467189954
66, 447.93, 1196.21, 460.96, 210.99, 0.000, 0.000, 0.000, 19:43:09.954, 1582467189954
67, 457.83, 1219.93, 468.67, 218.17, 0.000, 0.000, 0.000, 19:43:09.968, 1582467189968
68, 469.11, 1211.01, 477.90, 231.12, 0.000, 0.000, 0.000, 19:43:09.968, 1582467189968
69, 458.68, 1214.72, 467.10, 216.66, 0.000, 0.000, 0.000, 19:43:09.968, 1582467189968
70, 461.51, 1220.91, 473.26, 208.38, 0.000, 0.000, 0.000, 19:43:09.968, 1582467189968
71, 484.53, 1253.30, 495.22, 231.52, 0.000, 0.000, 0.000, 19:43:09.982, 1582467189982
72, 471.57, 1239.23, 481.80, 252.61, 0.000, 0.000, 0.000, 19:43:09.982, 1582467189982
73, 483.32, 1239.42, 494.05, 237.92, 0.000, 0.000, 0.000, 19:43:09.998, 1582467189998
74, 497.11, 1260.19, 499.96, 240.80, 0.000, 0.000, 0.000, 19:43:09.998, 1582467189998
75, 487.88, 1275.59, 500.34, 253.58, 0.000, 0.000, 0.000, 19:43:09.998, 1582467189998
76, 523.20, 1348.94, 536.77, 276.60, 0.000, 0.000, 0.000, 19:43:09.998, 1582467189998
77, 516.40, 1301.04, 527.73, 270.20, 0.000, 0.000, 0.000, 19:43:10.012, 1582467190012
78, 484.21, 1269.76, 499.79, 256.56, 0.000, 0.000, 0.000, 19:43:10.012, 1582467190012
79, 476.53, 1254.92, 492.58, 250.85, 0.000, 0.000, 0.000, 19:43:10.028, 1582467190028
80, 476.37, 1246.88, 486.79, 243.99, 0.000, 0.000, 0.000, 19:43:10.028, 1582467190028
81, 483.82, 1271.96, 502.72, 245.10, 0.000, 0.000, 0.000, 19:43:10.029, 1582467190029
82, 477.79, 1249.23, 496.25, 243.33, 0.000, 0.000, 0.000, 19:43:10.029, 1582467190029
83, 501.19, 1299.78, 521.13, 263.43, 0.000, 0.000, 0.000, 19:43:10.059, 1582467190059
84, 494.12, 1319.53, 517.64, 277.49, 0.000, 0.000, 0.000, 19:43:10.059, 1582467190059
85, 534.34, 1367.44, 551.26, 316.37, 0.000, 0.000, 0.000, 19:43:10.059, 1582467190059
86, 524.00, 1342.77, 540.08, 290.37, 0.000, 0.000, 0.000, 19:43:10.059, 1582467190059
87, 481.88, 1272.82, 498.61, 246.29, 0.000, 0.000, 0.000, 19:43:10.060, 1582467190060
88, 500.16, 1315.25, 520.71, 271.92, 0.000, 0.000, 0.000, 19:43:10.060, 1582467190060
89, 521.40, 1317.44, 539.69, 287.14, 0.000, 0.000, 0.000, 19:43:10.073, 1582467190073
90, 518.97, 1341.40, 522.52, 288.66, 0.000, 0.000, 0.000, 19:43:10.073, 1582467190073
91, 513.32, 1327.01, 514.15, 275.94, 0.000, 0.000, 0.000, 19:43:10.088, 1582467190088
92, 498.69, 1306.47, 507.62, 255.05, 0.000, 0.000, 0.000, 19:43:10.088, 1582467190088
93, 510.28, 1315.65, 523.90, 266.55, 0.000, 0.000, 0.000, 19:43:10.089, 1582467190089
94, 515.03, 1329.16, 530.52, 279.57, 0.000, 0.000, 0.000, 19:43:10.089, 1582467190089
95, 528.05, 1352.65, 540.80, 288.08, 0.000, 0.000, 0.000, 19:43:10.102, 1582467190102
96, 530.90, 1377.75, 539.59, 293.04, 0.000, 0.000, 0.000, 19:43:10.102, 1582467190102
97, 561.66, 1424.36, 568.57, 321.98, 0.000, 0.000, 0.000, 19:43:10.118, 1582467190118
98, 541.97, 1366.17, 546.43, 297.17, 0.000, 0.000, 0.000, 19:43:10.118, 1582467190118
99, 509.39, 1330.05, 530.17, 284.78, 0.000, 0.000, 0.000, 19:43:10.119, 1582467190119
100, 522.63, 1357.69, 536.57, 285.21, 0.000, 0.000, 0.000, 19:43:10.119, 1582467190119
101, 553.70, 1374.82, 561.53, 307.93, 0.000, 0.000, 0.000, 19:43:10.132, 1582467190132
102, 542.43, 1375.71, 550.00, 310.88, 0.000, 0.000, 0.000, 19:43:10.132, 1582467190132
103, 545.09, 1381.29, 554.60, 297.71, 0.000, 0.000, 0.000, 19:43:10.148, 1582467190148
104, 575.65, 1445.53, 580.37, 332.06, 0.000, 0.000, 0.000, 19:43:10.148, 1582467190148
105, 552.12, 1415.24, 574.23, 320.70, 0.000, 0.000, 0.000, 19:43:10.149, 1582467190149
106, 531.45, 1340.31, 540.27, 310.68, 0.000, 0.000, 0.000, 19:43:10.149, 1582467190149
107, 589.54, 1466.57, 595.45, 352.39, 0.000, 0.000, 0.000, 19:43:10.162, 1582467190162
108, 542.78, 1400.69, 550.30, 329.78, 0.000, 0.000, 0.000, 19:43:10.162, 1582467190162
109, 508.17, 1298.68, 513.82, 283.39, 0.000, 0.000, 0.000, 19:43:10.178, 1582467190178
110, 533.16, 1357.75, 542.68, 313.28, 0.000, 0.000, 0.000, 19:43:10.178, 1582467190178
111, 567.25, 1391.56, 548.12, 305.46, 0.000, 0.000, 0.000, 19:43:10.179, 1582467190179
112, 568.23, 1378.11, 541.33, 295.20, 0.000, 0.000, 0.000, 19:43:10.179, 1582467190179
113, 591.32, 1418.31, 578.02, 310.04, 0.000, 0.000, 0.000, 19:43:10.192, 1582467190192
114, 587.60, 1441.78, 581.21, 334.32, 0.000, 0.000, 0.000, 19:43:10.192, 1582467190192
115, 552.70, 1400.97, 562.61, 315.11, 0.000, 0.000, 0.000, 19:43:10.208, 1582467190208
116, 548.98, 1390.81, 553.69, 305.35, 0.000, 0.000, 0.000, 19:43:10.208, 1582467190208
117, 539.57, 1389.43, 558.01, 300.08, 0.000, 0.000, 0.000, 19:43:10.209, 1582467190209
118, 555.11, 1416.33, 567.87, 318.52, 0.000, 0.000, 0.000, 19:43:10.209, 1582467190209
119, 571.13, 1425.86, 578.65, 312.78, 0.000, 0.000, 0.000, 19:43:10.223, 1582467190223
120, 551.79, 1412.44, 560.56, 311.07, 0.000, 0.000, 0.000, 19:43:10.223, 1582467190223
121, 561.00, 1405.37, 569.16, 310.05, 0.000, 0.000, 0.000, 19:43:10.238, 1582467190238
122, 588.14, 1408.94, 578.33, 320.11, 0.000, 0.000, 0.000, 19:43:10.238, 1582467190238
123, 570.34, 1422.92, 574.94, 310.90, 0.000, 0.000, 0.000, 19:43:10.239, 1582467190239
124, 568.05, 1417.65, 569.84, 316.07, 0.000, 0.000, 0.000, 19:43:10.239, 1582467190239
125, 590.95, 1434.12, 587.80, 321.00, 0.000, 0.000, 0.000, 19:43:10.252, 1582467190252
126, 580.95, 1424.52, 565.61, 323.17, 0.000, 0.000, 0.000, 19:43:10.252, 1582467190252
127, 585.81, 1436.59, 573.26, 318.92, 0.000, 0.000, 0.000, 19:43:10.268, 1582467190268
128, 585.70, 1418.56, 577.47, 323.81, 0.000, 0.000, 0.000, 19:43:10.268, 1582467190268
129, 581.22, 1421.64, 583.83, 318.33, 0.000, 0.000, 0.000, 19:43:10.269, 1582467190269
130, 580.22, 1417.01, 586.31, 317.17, 0.000, 0.000, 0.000, 19:43:10.269, 1582467190269
131, 600.76, 1451.86, 601.56, 347.81, 0.000, 0.000, 0.000, 19:43:10.283, 1582467190283
132, 599.28, 1469.56, 598.70, 344.08, 0.000, 0.000, 0.000, 19:43:10.283, 1582467190283
133, 566.40, 1399.39, 581.10, 307.63, 0.000, 0.000, 0.000, 19:43:10.298, 1582467190298
134, 574.90, 1410.77, 592.66, 323.59, 0.000, 0.000, 0.000, 19:43:10.298, 1582467190298
135, 564.66, 1399.22, 581.71, 304.07, 0.000, 0.000, 0.000, 19:43:10.299, 1582467190299
136, 590.52, 1455.01, 602.15, 341.48, 0.000, 0.000, 0.000, 19:43:10.299, 1582467190299
137, 606.65, 1466.72, 622.76, 335.05, 0.000, 0.000, 0.000, 19:43:10.313, 1582467190313
138, 600.06, 1472.20, 616.00, 344.03, 0.000, 0.000, 0.000, 19:43:10.313, 1582467190313
139, 576.00, 1417.35, 594.36, 316.30, 0.000, 0.000, 0.000, 19:43:10.328, 1582467190328
140, 583.27, 1437.71, 593.25, 309.41, 0.000, 0.000, 0.000, 19:43:10.328, 1582467190328
141, 579.31, 1436.99, 600.43, 317.26, 0.000, 0.000, 0.000, 19:43:10.329, 1582467190329
142, 579.54, 1442.67, 603.25, 329.58, 0.000, 0.000, 0.000, 19:43:10.329, 1582467190329
143, 592.84, 1463.97, 614.97, 331.80, 0.000, 0.000, 0.000, 19:43:10.359, 1582467190359
144, 579.90, 1459.96, 600.37, 325.41, 0.000, 0.000, 0.000, 19:43:10.359, 1582467190359
145, 596.00, 1478.26, 621.10, 346.42, 0.000, 0.000, 0.000, 19:43:10.359, 1582467190359
146, 596.36, 1469.06, 619.68, 338.31, 0.000, 0.000, 0.000, 19:43:10.359, 1582467190359
147, 600.17, 1484.54, 623.63, 349.08, 0.000, 0.000, 0.000, 19:43:10.360, 1582467190360
148, 575.48, 1454.21, 598.91, 297.34, 0.000, 0.000, 0.000, 19:43:10.360, 1582467190360
149, 594.59, 1444.87, 611.97, 306.06, 0.000, 0.000, 0.000, 19:43:10.373, 1582467190373
150, 562.43, 1422.79, 583.19, 309.54, 0.000, 0.000, 0.000, 19:43:10.373, 1582467190373
151, 574.40, 1436.34, 590.91, 299.17, 0.000, 0.000, 0.000, 19:43:10.388, 1582467190388
152, 581.66, 1447.97, 600.85, 306.38, 0.000, 0.000, 0.000, 19:43:10.388, 1582467190388
153, 579.58, 1444.03, 594.84, 303.86, 0.000, 0.000, 0.000, 19:43:10.389, 1582467190389
154, 585.36, 1456.27, 597.47, 304.88, 0.000, 0.000, 0.000, 19:43:10.389, 1582467190389
155, 577.25, 1422.54, 582.54, 287.20, 0.000, 0.000, 0.000, 19:43:10.403, 1582467190403
156, 581.89, 1456.60, 589.61, 310.26, 0.000, 0.000, 0.000, 19:43:10.403, 1582467190403
157, 594.95, 1471.15, 612.60, 319.67, 0.000, 0.000, 0.000, 19:43:10.418, 1582467190418
158, 579.66, 1435.60, 595.14, 312.98, 0.000, 0.000, 0.000, 19:43:10.418, 1582467190418
159, 582.46, 1461.08, 601.91, 324.98, 0.000, 0.000, 0.000, 19:43:10.419, 1582467190419
160, 578.60, 1437.88, 594.46, 314.56, 0.000, 0.000, 0.000, 19:43:10.419, 1582467190419
161, 595.25, 1460.27, 607.28, 313.11, 0.000, 0.000, 0.000, 19:43:10.432, 1582467190432
162, 590.52, 1484.47, 602.65, 301.86, 0.000, 0.000, 0.000, 19:43:10.432, 1582467190432
163, 606.76, 1506.34, 615.96, 329.48, 0.000, 0.000, 0.000, 19:43:10.448, 1582467190448
164, 597.27, 1472.71, 600.39, 331.53, 0.000, 0.000, 0.000, 19:43:10.448, 1582467190448
165, 568.77, 1428.62, 581.21, 288.08, 0.000, 0.000, 0.000, 19:43:10.449, 1582467190449
166, 566.98, 1417.41, 582.32, 290.37, 0.000, 0.000, 0.000, 19:43:10.449, 1582467190449
167, 561.29, 1385.84, 580.37, 284.91, 0.000, 0.000, 0.000, 19:43:10.462, 1582467190462
168, 552.89, 1402.31, 569.42, 273.85, 0.000, 0.000, 0.000, 19:43:10.462, 1582467190462
169, 586.08, 1450.26, 607.07, 302.07, 0.000, 0.000, 0.000, 19:43:10.510, 1582467190510
170, 577.58, 1442.59, 604.06, 300.17, 0.000, 0.000, 0.000, 19:43:10.510, 1582467190510
171, 593.90, 1473.23, 620.41, 324.23, 0.000, 0.000, 0.000, 19:43:10.511, 1582467190511
172, 581.85, 1454.71, 611.21, 321.47, 0.000, 0.000, 0.000, 19:43:10.511, 1582467190511
173, 587.19, 1459.39, 615.12, 312.35, 0.000, 0.000, 0.000, 19:43:10.512, 1582467190512
174, 590.75, 1470.60, 619.20, 313.66, 0.000, 0.000, 0.000, 19:43:10.512, 1582467190512
175, 591.81, 1474.08, 619.11, 313.53, 0.000, 0.000, 0.000, 19:43:10.512, 1582467190512
176, 614.03, 1495.64, 629.86, 327.22, 0.000, 0.000, 0.000, 19:43:10.512, 1582467190512
177, 604.11, 1494.73, 625.78, 305.24, 0.000, 0.000, 0.000, 19:43:10.523, 1582467190523
178, 587.81, 1440.48, 611.38, 301.54, 0.000, 0.000, 0.000, 19:43:10.523, 1582467190523
179, 583.45, 1433.73, 614.19, 290.79, 0.000, 0.000, 0.000, 19:43:10.524, 1582467190524
180, 568.87, 1442.57, 597.73, 303.56, 0.000, 0.000, 0.000, 19:43:10.524, 1582467190524
181, 576.18, 1458.88, 618.86, 293.95, 0.000, 0.000, 0.000, 19:43:10.538, 1582467190538
182, 613.56, 1491.84, 640.99, 309.16, 0.000, 0.000, 0.000, 19:43:10.538, 1582467190538
183, 548.05, 1383.07, 581.50, 283.37, 0.000, 0.000, 0.000, 19:43:10.539, 1582467190539
184, 594.70, 1438.75, 620.17, 320.74, 0.000, 0.000, 0.000, 19:43:10.539, 1582467190539
185, 595.31, 1442.10, 628.05, 303.15, 0.000, 0.000, 0.000, 19:43:10.553, 1582467190553
186, 564.18, 1450.16, 600.67, 279.30, 0.000, 0.000, 0.000, 19:43:10.553, 1582467190553
187, 548.91, 1418.16, 591.19, 277.23, 0.000, 0.000, 0.000, 19:43:10.568, 1582467190568
188, 568.20, 1438.85, 602.23, 288.77, 0.000, 0.000, 0.000, 19:43:10.568, 1582467190568
189, 594.29, 1466.21, 629.38, 329.10, 0.000, 0.000, 0.000, 19:43:10.569, 1582467190569
190, 602.30, 1458.48, 624.96, 309.96, 0.000, 0.000, 0.000, 19:43:10.569, 1582467190569
191, 614.36, 1459.57, 618.53, 278.63, 0.000, 0.000, 0.000, 19:43:10.583, 1582467190583
192, 622.06, 1452.80, 614.10, 286.26, 0.000, 0.000, 0.000, 19:43:10.583, 1582467190583
193, 640.80, 1454.50, 627.41, 304.86, 0.000, 0.000, 0.000, 19:43:10.598, 1582467190598
194, 628.03, 1432.64, 618.19, 285.39, 0.000, 0.000, 0.000, 19:43:10.598, 1582467190598
195, 622.80, 1449.59, 617.99, 297.73, 0.000, 0.000, 0.000, 19:43:10.599, 1582467190599
196, 627.07, 1469.04, 626.64, 292.98, 0.000, 0.000, 0.000, 19:43:10.599, 1582467190599
197, 620.37, 1455.42, 627.53, 286.29, 0.000, 0.000, 0.000, 19:43:10.613, 1582467190613
198, 625.71, 1485.64, 628.74, 294.05, 0.000, 0.000, 0.000, 19:43:10.613, 1582467190613
199, 635.03, 1489.20, 642.41, 304.26, 0.000, 0.000, 0.000, 19:43:10.628, 1582467190628
200, 578.38, 1379.62, 587.74, 261.97, 0.000, 0.000, 0.000, 19:43:10.628, 1582467190628
0, 595.33, 1412.53, 610.63, 278.83, 0.000, 0.000, 0.000, 19:43:10.629, 1582467190629
1, 612.22, 1490.77, 656.39, 336.98, 0.000, 0.000, 0.000, 19:43:10.643, 1582467190643
2, 575.48, 1398.23, 611.14, 268.95, 0.000, 0.000, 0.000, 19:43:10.643, 1582467190643
3, 583.77, 1442.66, 607.37, 274.01, 0.000, 0.000, 0.000, 19:43:10.644, 1582467190644
4, 605.34, 1460.79, 632.09, 282.81, 0.000, 0.000, 0.000, 19:43:10.644, 1582467190644
5, 584.79, 1437.17, 609.21, 262.96, 0.000, 0.000, 0.000, 19:43:10.658, 1582467190658
6, 542.62, 1410.96, 574.41, 253.50, 0.000, 0.000, 0.000, 19:43:10.658, 1582467190658
7, 540.76, 1416.10, 578.41, 260.31, 0.000, 0.000, 0.000, 19:43:10.673, 1582467190673
8, 551.58, 1414.77, 581.04, 260.24, 0.000, 0.000, 0.000, 19:43:10.673, 1582467190673
9, 538.77, 1419.70, 579.80, 264.95, 0.000, 0.000, 0.000, 19:43:10.674, 1582467190674
10, 529.11, 1410.90, 571.46, 251.70, 0.000, 0.000, 0.000, 19:43:10.674, 1582467190674
11, 538.65, 1417.40, 584.20, 250.40, 0.000, 0.000, 0.000, 19:43:10.688, 1582467190688
12, 540.85, 1435.01, 585.92, 274.70, 0.000, 0.000, 0.000, 19:43:10.688, 1582467190688
13, 554.52, 1431.34, 589.00, 269.63, 0.000, 0.000, 0.000, 19:43:10.703, 1582467190703
14, 583.84, 1485.02, 615.05, 297.49, 0.000, 0.000, 0.000, 19:43:10.703, 1582467190703
15, 558.75, 1443.53, 596.09, 268.58, 0.000, 0.000, 0.000, 19:43:10.704, 1582467190704
16, 557.17, 1409.32, 588.87, 273.12, 0.000, 0.000, 0.000, 19:43:10.704, 1582467190704
17, 599.37, 1489.07, 629.42, 282.33, 0.000, 0.000, 0.000, 19:43:10.718, 1582467190718
18, 529.59, 1442.34, 577.46, 241.50, 0.000, 0.000, 0.000, 19:43:10.718, 1582467190718
19, 515.16, 1354.52, 559.23, 216.41, 0.000, 0.000, 0.000, 19:43:10.733, 1582467190733
20, 521.49, 1344.04, 556.10, 224.32, 0.000, 0.000, 0.000, 19:43:10.733, 1582467190733
21, 549.99, 1433.15, 596.68, 258.87, 0.000, 0.000, 0.000, 19:43:10.734, 1582467190734
22, 564.09, 1454.21, 597.91, 255.96, 0.000, 0.000, 0.000, 19:43:10.734, 1582467190734
23, 549.06, 1368.57, 576.07, 248.02, 0.000, 0.000, 0.000, 19:43:10.764, 1582467190764
24, 542.04, 1381.14, 580.11, 241.69, 0.000, 0.000, 0.000, 19:43:10.764, 1582467190764
25, 571.46, 1412.50, 626.43, 249.07, 0.000, 0.000, 0.000, 19:43:10.765, 1582467190765
26, 566.27, 1402.40, 626.41, 233.23, 0.000, 0.000, 0.000, 19:43:10.765, 1582467190765
27, 568.49, 1445.12, 641.85, 246.38, 0.000, 0.000, 0.000, 19:43:10.765, 1582467190765
28, 582.79, 1440.06, 638.54, 245.89, 0.000, 0.000, 0.000, 19:43:10.765, 1582467190765
29, 587.42, 1420.21, 639.44, 253.62, 0.000, 0.000, 0.000, 19:43:10.778, 1582467190778
30, 589.80, 1481.29, 634.92, 268.32, 0.000, 0.000, 0.000, 19:43:10.778, 1582467190778
31, 539.76, 1383.42, 593.67, 217.31, 0.000, 0.000, 0.000, 19:43:10.793, 1582467190793
32, 539.67, 1361.70, 597.53, 231.17, 0.000, 0.000, 0.000, 19:43:10.793, 1582467190793
33, 529.93, 1380.63, 588.31, 210.62, 0.000, 0.000, 0.000, 19:43:10.794, 1582467190794
34, 547.37, 1395.32, 600.30, 230.13, 0.000, 0.000, 0.000, 19:43:10.794, 1582467190794
35, 549.91, 1381.06, 592.73, 210.37, 0.000, 0.000, 0.000, 19:43:10.808, 1582467190808
36, 558.14, 1413.78, 600.23, 233.49, 0.000, 0.000, 0.000, 19:43:10.808, 1582467190808
37, 546.28, 1417.97, 573.52, 234.77, 0.000, 0.000, 0.000, 19:43:10.823, 1582467190823
38, 554.42, 1424.99, 562.87, 241.72, 0.000, 0.000, 0.000, 19:43:10.823, 1582467190823
39, 551.29, 1391.92, 566.48, 229.63, 0.000, 0.000, 0.000, 19:43:10.824, 1582467190824
40, 557.78, 1361.22, 578.38, 260.00, 0.000, 0.000, 0.000, 19:43:10.824, 1582467190824
41, 586.20, 1402.14, 607.25, 241.16, 0.000, 0.000, 0.000, 19:43:10.838, 1582467190838
42, 572.27, 1431.48, 595.00, 222.15, 0.000, 0.000, 0.000, 19:43:10.838, 1582467190838
43, 587.12, 1416.37, 607.80, 242.12, 0.000, 0.000, 0.000, 19:43:10.853, 1582467190853
44, 587.66, 1390.85, 609.20, 234.44, 0.000, 0.000, 0.000, 19:43:10.853, 1582467190853
45, 601.77, 1406.66, 619.90, 257.63, 0.000, 0.000, 0.000, 19:43:10.854, 1582467190854
46, 611.79, 1395.10, 603.69, 227.97, 0.000, 0.000, 0.000, 19:43:10.854, 1582467190854
47, 632.46, 1390.02, 613.92, 238.32, 0.000, 0.000, 0.000, 19:43:10.868, 1582467190868
48, 619.56, 1365.62, 589.57, 223.98, 0.000, 0.000, 0.000, 19:43:10.868, 1582467190868
49, 626.84, 1401.01, 613.69, 243.29, 0.000, 0.000, 0.000, 19:43:10.884, 1582467190884
50, 600.44, 1382.09, 595.14, 236.51, 0.000, 0.000, 0.000, 19:43:10.884, 1582467190884
51, 611.39, 1388.27, 611.46, 247.31, 0.000, 0.000, 0.000, 19:43:10.884, 1582467190884
52, 597.81, 1351.00, 600.52, 257.17, 0.000, 0.000, 0.000, 19:43:10.884, 1582467190884
53, 611.31, 1380.50, 621.08, 247.64, 0.000, 0.000, 0.000, 19:43:10.914, 1582467190914
54, 588.19, 1369.89, 593.25, 217.82, 0.000, 0.000, 0.000, 19:43:10.914, 1582467190914
55, 624.35, 1413.75, 625.76, 248.98, 0.000, 0.000, 0.000, 19:43:10.915, 1582467190915
56, 607.21, 1379.38, 599.73, 232.75, 0.000, 0.000, 0.000, 19:43:10.915, 1582467190915
57, 582.08, 1355.88, 584.21, 221.10, 0.000, 0.000, 0.000, 19:43:10.916, 1582467190916
58, 575.73, 1348.09, 577.46, 223.58, 0.000, 0.000, 0.000, 19:43:10.916, 1582467190916
59, 593.53, 1395.99, 604.09, 221.50, 0.000, 0.000, 0.000, 19:43:10.928, 1582467190928
60, 545.87, 1325.20, 557.18, 214.40, 0.000, 0.000, 0.000, 19:43:10.928, 1582467190928
61, 543.51, 1328.39, 554.76, 177.36, 0.000, 0.000, 0.000, 19:43:10.944, 1582467190944
62, 549.89, 1335.04, 558.61, 195.50, 0.000, 0.000, 0.000, 19:43:10.944, 1582467190944
63, 589.84, 1399.56, 591.75, 210.33, 0.000, 0.000, 0.000, 19:43:10.944, 1582467190944
64, 621.29, 1466.49, 629.23, 250.66, 0.000, 0.000, 0.000, 19:43:10.944, 1582467190944
65, 573.87, 1361.05, 589.08, 220.34, 0.000, 0.000, 0.000, 19:43:10.958, 1582467190958
66, 478.71, 1246.17, 504.14, 145.59, 0.000, 0.000, 0.000, 19:43:10.958, 1582467190958
67, 515.00, 1336.19, 549.38, 174.60, 0.000, 0.000, 0.000, 19:43:10.974, 1582467190974
68, 508.63, 1303.27, 534.16, 163.81, 0.000, 0.000, 0.000, 19:43:10.974, 1582467190974
69, 512.85, 1330.52, 551.33, 183.14, 0.000, 0.000, 0.000, 19:43:10.974, 1582467190974
70, 500.55, 1321.31, 535.86, 156.75, 0.000, 0.000, 0.000, 19:43:10.974, 1582467190974
71, 526.53, 1367.70, 555.01, 167.53, 0.000, 0.000, 0.000, 19:43:10.988, 1582467190988
72, 526.94, 1386.99, 561.80, 187.04, 0.000, 0.000, 0.000, 19:43:10.988, 1582467190988
73, 528.45, 1364.71, 563.19, 195.22, 0.000, 0.000, 0.000, 19:43:11.003, 1582467191003
74, 539.53, 1407.88, 568.46, 188.44, 0.000, 0.000, 0.000, 19:43:11.003, 1582467191003
75, 479.87, 1304.03, 516.11, 152.20, 0.000, 0.000, 0.000, 19:43:11.004, 1582467191004
76, 491.59, 1320.82, 521.91, 147.37, 0.000, 0.000, 0.000, 19:43:11.004, 1582467191004
77, 509.91, 1340.47, 547.79, 168.14, 0.000, 0.000, 0.000, 19:43:11.018, 1582467191018
78, 501.63, 1341.76, 526.92, 169.28, 0.000, 0.000, 0.000, 19:43:11.018, 1582467191018
79, 483.87, 1314.98, 519.85, 145.13, 0.000, 0.000, 0.000, 19:43:11.034, 1582467191034
80, 511.62, 1358.43, 542.37, 158.80, 0.000, 0.000, 0.000, 19:43:11.034, 1582467191034
81, 511.53, 1357.58, 537.81, 159.51, 0.000, 0.000, 0.000, 19:43:11.034, 1582467191034
82, 471.28, 1283.19, 507.22, 133.28, 0.000, 0.000, 0.000, 19:43:11.034, 1582467191034
83, 492.12, 1320.38, 529.39, 127.91, 0.000, 0.000, 0.000, 19:43:11.064, 1582467191064
84, 478.38, 1333.39, 513.84, 124.63, 0.000, 0.000, 0.000, 19:43:11.064, 1582467191064
85, 500.34, 1350.06, 529.78, 145.13, 0.000, 0.000, 0.000, 19:43:11.065, 1582467191065
86, 564.43, 1484.21, 589.33, 195.47, 0.000, 0.000, 0.000, 19:43:11.065, 1582467191065
87, 537.36, 1461.90, 570.01, 153.02, 0.000, 0.000, 0.000, 19:43:11.066, 1582467191066
88, 424.42, 1206.57, 465.67, 92.91, 0.000, 0.000, 0.000, 19:43:11.066, 1582467191066
89, 493.78, 1268.02, 500.74, 116.04, 0.000, 0.000, 0.000, 19:43:11.078, 1582467191078
90, 483.87, 1334.11, 499.35, 121.36, 0.000, 0.000, 0.000, 19:43:11.078, 1582467191078
91, 502.96, 1341.44, 510.55, 127.33, 0.000, 0.000, 0.000, 19:43:11.093, 1582467191093
92, 501.77, 1331.95, 522.99, 114.27, 0.000, 0.000, 0.000, 19:43:11.093, 1582467191093
93, 495.87, 1349.25, 522.48, 120.50, 0.000, 0.000, 0.000, 19:43:11.094, 1582467191094
94, 489.05, 1340.79, 513.98, 101.30, 0.000, 0.000, 0.000, 19:43:11.094, 1582467191094
95, 522.44, 1371.18, 524.96, 139.44, 0.000, 0.000, 0.000, 19:43:11.108, 1582467191108
96, 501.36, 1391.45, 510.45, 115.76, 0.000, 0.000, 0.000, 19:43:11.108, 1582467191108
97, 498.27, 1349.50, 518.62, 110.41, 0.000, 0.000, 0.000, 19:43:11.124, 1582467191124
98, 477.39, 1305.09, 491.42, 68.44, 0.000, 0.000, 0.000, 19:43:11.124, 1582467191124
99, 482.48, 1325.78, 500.20, 83.23, 0.000, 0.000, 0.000, 19:43:11.124, 1582467191124
100, 545.99, 1471.00, 571.60, 137.62, 0.000, 0.000, 0.000, 19:43:11.124, 1582467191124
101, 502.46, 1338.46, 528.69, 115.80, 0.000, 0.000, 0.000, 19:43:11.138, 1582467191138
102, 473.55, 1313.41, 469.03, 91.53, 0.000, 0.000, 0.000, 19:43:11.138, 1582467191138
103, 509.82, 1369.41, 522.16, 113.48, 0.000, 0.000, 0.000, 19:43:11.168, 1582467191168
104, 509.01, 1350.00, 508.42, 104.24, 0.000, 0.000, 0.000, 19:43:11.168, 1582467191168
105, 464.50, 1287.05, 478.86, 95.55, 0.000, 0.000, 0.000, 19:43:11.185, 1582467191185
106, 448.64, 1279.02, 454.72, 63.28, 0.000, 0.000, 0.000, 19:43:11.185, 1582467191185
107, 489.46, 1311.85, 499.03, 89.07, 0.000, 0.000, 0.000, 19:43:11.186, 1582467191186
108, 491.66, 1355.55, 503.75, 94.84, 0.000, 0.000, 0.000, 19:43:11.186, 1582467191186
109, 498.28, 1373.06, 517.89, 71.14, 0.000, 0.000, 0.000, 19:43:11.186, 1582467191186
110, 486.25, 1315.32, 516.68, 78.67, 0.000, 0.000, 0.000, 19:43:11.186, 1582467191186
111, 472.01, 1339.03, 496.04, 84.10, 0.000, 0.000, 0.000, 19:43:11.187, 1582467191187
112, 531.80, 1426.75, 551.32, 109.12, 0.000, 0.000, 0.000, 19:43:11.187, 1582467191187
113, 484.99, 1324.70, 507.98, 73.24, 0.000, 0.000, 0.000, 19:43:11.198, 1582467191198
114, 494.13, 1375.49, 498.36, 97.81, 0.000, 0.000, 0.000, 19:43:11.198, 1582467191198
115, 476.41, 1329.49, 481.46, 58.21, 0.000, 0.000, 0.000, 19:43:11.214, 1582467191214
116, 480.15, 1300.45, 490.49, 54.77, 0.000, 0.000, 0.000, 19:43:11.214, 1582467191214
117, 482.77, 1311.66, 495.41, 80.13, 0.000, 0.000, 0.000, 19:43:11.214, 1582467191214
118, 494.50, 1364.37, 503.06, 94.93, 0.000, 0.000, 0.000, 19:43:11.214, 1582467191214
119, 504.90, 1381.95, 501.43, 84.01, 0.000, 0.000, 0.000, 19:43:11.228, 1582467191228
120, 499.65, 1420.41, 508.62, 80.20, 0.000, 0.000, 0.000, 19:43:11.228, 1582467191228
121, 463.99, 1286.21, 473.52, 39.19, 0.000, 0.000, 0.000, 19:43:11.244, 1582467191244
122, 464.69, 1279.78, 465.11, 43.51, 0.000, 0.000, 0.000, 19:43:11.244, 1582467191244
123, 513.56, 1376.97, 520.52, 73.73, 0.000, 0.000, 0.000, 19:43:11.244, 1582467191244
124, 502.38, 1355.02, 507.13, 51.46, 0.000, 0.000, 0.000, 19:43:11.244, 1582467191244
125, 522.70, 1392.78, 532.67, 72.18, 0.000, 0.000, 0.000, 19:43:11.258, 1582467191258
126, 458.09, 1307.32, 479.22, 20.57, 0.000, 0.000, 0.000, 19:43:11.258, 1582467191258
127, 474.18, 1306.51, 475.05, 39.18, 0.000, 0.000, 0.000, 19:43:11.274, 1582467191274
128, 470.41, 1308.40, 448.99, 28.29, 0.000, 0.000, 0.000, 19:43:11.274, 1582467191274
129, 499.23, 1401.81, 500.71, 54.95, 0.000, 0.000, 0.000, 19:43:11.274, 1582467191274
130, 515.93, 1421.23, 515.23, 70.67, 0.000, 0.000, 0.000, 19:43:11.274, 1582467191274
131, 476.18, 1281.39, 477.59, 42.52, 0.000, 0.000, 0.000, 19:43:11.288, 1582467191288
132, 498.47, 1357.04, 497.00, 54.68, 0.000, 0.000, 0.000, 19:43:11.288, 1582467191288
133, 477.62, 1324.46, 484.92, 36.16, 0.000, 0.000, 0.000, 19:43:11.304, 1582467191304
134, 481.79, 1340.15, 455.68, 23.88, 0.000, 0.000, 0.000, 19:43:11.304, 1582467191304
135, 473.53, 1333.00, 462.94, 19.48, 0.000, 0.000, 0.000, 19:43:11.304, 1582467191304
136, 515.60, 1388.27, 480.23, 49.74, 0.000, 0.000, 0.000, 19:43:11.304, 1582467191304
137, 530.04, 1432.28, 487.38, 69.08, 0.000, 0.000, 0.000, 19:43:11.318, 1582467191318
138, 488.08, 1363.88, 468.14, 42.57, 0.000, 0.000, 0.000, 19:43:11.318, 1582467191318
139, 496.13, 1430.75, 478.18, 17.78, 0.000, 0.000, 0.000, 19:43:11.334, 1582467191334
140, 467.70, 1317.97, 410.55, 5.32, 0.000, 0.000, 0.000, 19:43:11.334, 1582467191334
141, 466.52, 1329.72, 410.27, 25.31, 0.000, 0.000, 0.000, 19:43:11.334, 1582467191334
142, 481.57, 1365.90, 424.97, 27.16, 0.000, 0.000, 0.000, 19:43:11.334, 1582467191334
143, 513.97, 1405.43, 463.32, 47.55, 0.000, 0.000, 0.000, 19:43:11.348, 1582467191348
144, 504.68, 1439.50, 469.89, 27.59, 0.000, 0.000, 0.000, 19:43:11.348, 1582467191348
145, 468.72, 1350.46, 429.91, -1.78, 0.000, 0.000, 0.000, 19:43:11.364, 1582467191364
146, 463.59, 1321.32, 444.30, 7.39, 0.000, 0.000, 0.000, 19:43:11.364, 1582467191364
147, 469.79, 1343.34, 444.54, 15.71, 0.000, 0.000, 0.000, 19:43:11.364, 1582467191364
148, 500.57, 1400.13, 454.70, 37.13, 0.000, 0.000, 0.000, 19:43:11.364, 1582467191364
149, 514.04, 1404.80, 457.25, 59.48, 0.000, 0.000, 0.000, 19:43:11.378, 1582467191378
150, 470.46, 1388.37, 427.25, 0.65, 0.000, 0.000, 0.000, 19:43:11.378, 1582467191378
151, 482.46, 1418.27, 441.28, 5.86, 0.000, 0.000, 0.000, 19:43:11.394, 1582467191394
152, 528.34, 1479.36, 476.85, 56.06, 0.000, 0.000, 0.000, 19:43:11.394, 1582467191394
153, 447.25, 1305.98, 398.76, -2.35, 0.000, 0.000, 0.000, 19:43:11.394, 1582467191394
154, 456.74, 1331.21, 443.31, -19.32, 0.000, 0.000, 0.000, 19:43:11.394, 1582467191394
155, 490.30, 1374.74, 463.59, 9.81, 0.000, 0.000, 0.000, 19:43:11.408, 1582467191408
156, 511.44, 1415.16, 480.37, 31.87, 0.000, 0.000, 0.000, 19:43:11.408, 1582467191408
157, 488.18, 1354.88, 464.35, 1.59, 0.000, 0.000, 0.000, 19:43:11.424, 1582467191424
158, 495.26, 1374.28, 464.18, 8.97, 0.000, 0.000, 0.000, 19:43:11.424, 1582467191424
159, 502.95, 1410.86, 487.57, 37.29, 0.000, 0.000, 0.000, 19:43:11.424, 1582467191424
160, 538.18, 1454.03, 511.36, 65.60, 0.000, 0.000, 0.000, 19:43:11.424, 1582467191424
161, 529.62, 1439.50, 485.44, 32.04, 0.000, 0.000, 0.000, 19:43:11.438, 1582467191438
162, 469.60, 1364.07, 412.43, -23.18, 0.000, 0.000, 0.000, 19:43:11.438, 1582467191438
163, 475.87, 1359.95, 414.27, -21.49, 0.000, 0.000, 0.000, 19:43:11.454, 1582467191454
164, 481.96, 1366.63, 424.94, -15.81, 0.000, 0.000, 0.000, 19:43:11.454, 1582467191454
165, 481.02, 1355.46, 426.77, -6.78, 0.000, 0.000, 0.000, 19:43:11.454, 1582467191454
166, 482.77, 1386.28, 425.33, 10.04, 0.000, 0.000, 0.000, 19:43:11.454, 1582467191454
167, 511.91, 1453.93, 463.44, 13.50, 0.000, 0.000, 0.000, 19:43:11.468, 1582467191468
168, 441.49, 1310.16, 378.94, -41.83, 0.000, 0.000, 0.000, 19:43:11.468, 1582467191468
169, 467.21, 1358.46, 411.31, -18.06, 0.000, 0.000, 0.000, 19:43:11.484, 1582467191484
170, 476.73, 1376.01, 412.57, -13.25, 0.000, 0.000, 0.000, 19:43:11.484, 1582467191484
171, 470.64, 1361.86, 410.36, -12.70, 0.000, 0.000, 0.000, 19:43:11.484, 1582467191484
172, 492.68, 1415.43, 434.13, 2.36, 0.000, 0.000, 0.000, 19:43:11.484, 1582467191484
173, 534.38, 1442.76, 466.88, 29.74, 0.000, 0.000, 0.000, 19:43:11.498, 1582467191498
174, 497.90, 1401.05, 430.30, -30.05, 0.000, 0.000, 0.000, 19:43:11.498, 1582467191498
175, 525.38, 1410.75, 448.28, -6.13, 0.000, 0.000, 0.000, 19:43:11.514, 1582467191514
176, 513.80, 1372.38, 436.01, -19.18, 0.000, 0.000, 0.000, 19:43:11.514, 1582467191514
177, 524.03, 1392.48, 452.46, 3.12, 0.000, 0.000, 0.000, 19:43:11.514, 1582467191514
178, 555.69, 1458.22, 478.25, 24.68, 0.000, 0.000, 0.000, 19:43:11.514, 1582467191514
179, 527.27, 1399.73, 449.64, -47.12, 0.000, 0.000, 0.000, 19:43:11.528, 1582467191528
180, 472.92, 1319.46, 400.78, -47.75, 0.000, 0.000, 0.000, 19:43:11.528, 1582467191528
181, 507.21, 1367.46, 420.15, -28.35, 0.000, 0.000, 0.000, 19:43:11.544, 1582467191544
182, 521.50, 1384.08, 418.89, -15.17, 0.000, 0.000, 0.000, 19:43:11.544, 1582467191544
183, 481.51, 1334.55, 388.46, -48.63, 0.000, 0.000, 0.000, 19:43:11.544, 1582467191544
184, 506.87, 1373.21, 400.96, -40.05, 0.000, 0.000, 0.000, 19:43:11.544, 1582467191544
185, 520.28, 1391.36, 420.13, -26.49, 0.000, 0.000, 0.000, 19:43:11.558, 1582467191558
186, 502.70, 1408.08, 409.61, -35.27, 0.000, 0.000, 0.000, 19:43:11.558, 1582467191558
187, 524.72, 1433.83, 431.42, -23.33, 0.000, 0.000, 0.000, 19:43:11.573, 1582467191573
188, 495.00, 1377.44, 410.87, -20.61, 0.000, 0.000, 0.000, 19:43:11.573, 1582467191573
189, 522.05, 1426.79, 432.07, -14.93, 0.000, 0.000, 0.000, 19:43:11.589, 1582467191589
190, 479.07, 1383.59, 403.25, -44.47, 0.000, 0.000, 0.000, 19:43:11.589, 1582467191589
191, 515.43, 1423.89, 434.09, -34.32, 0.000, 0.000, 0.000, 19:43:11.589, 1582467191589
192, 493.21, 1380.45, 415.04, -21.20, 0.000, 0.000, 0.000, 19:43:11.589, 1582467191589
193, 468.98, 1375.14, 397.87, -85.01, 0.000, 0.000, 0.000, 19:43:11.603, 1582467191603
194, 498.95, 1401.58, 424.28, -45.51, 0.000, 0.000, 0.000, 19:43:11.603, 1582467191603
195, 478.70, 1414.31, 422.05, -46.98, 0.000, 0.000, 0.000, 19:43:11.619, 1582467191619
196, 518.57, 1486.49, 460.02, -6.11, 0.000, 0.000, 0.000, 19:43:11.619, 1582467191619
197, 454.46, 1344.25, 407.72, -50.08, 0.000, 0.000, 0.000, 19:43:11.619, 1582467191619
198, 427.15, 1326.83, 387.86, -53.64, 0.000, 0.000, 0.000, 19:43:11.619, 1582467191619
199, 460.61, 1375.23, 414.68, -29.19, 0.000, 0.000, 0.000, 19:43:11.634, 1582467191634
200, 486.88, 1397.74, 439.03, -30.48, 0.000, 0.000, 0.000, 19:43:11.634, 1582467191634
0, 483.94, 1389.89, 419.90, -36.49, 0.000, 0.000, 0.000, 19:43:11.634, 1582467191634
1, 490.59, 1405.14, 429.27, -41.88, 0.000, 0.000, 0.000, 19:43:11.649, 1582467191649
2, 487.83, 1363.94, 419.39, -56.66, 0.000, 0.000, 0.000, 19:43:11.649, 1582467191649
3, 491.79, 1383.02, 428.38, -49.80, 0.000, 0.000, 0.000, 19:43:11.649, 1582467191649
4, 512.42, 1406.30, 455.69, -23.76, 0.000, 0.000, 0.000, 19:43:11.649, 1582467191649
5, 526.89, 1427.85, 470.98, -26.30, 0.000, 0.000, 0.000, 19:43:11.663, 1582467191663
6, 469.14, 1334.98, 412.34, -62.37, 0.000, 0.000, 0.000, 19:43:11.663, 1582467191663
7, 527.63, 1404.33, 460.80, -25.16, 0.000, 0.000, 0.000, 19:43:11.679, 1582467191679
8, 508.80, 1382.11, 441.41, -39.22, 0.000, 0.000, 0.000, 19:43:11.679, 1582467191679
9, 514.25, 1411.21, 455.31, -45.45, 0.000, 0.000, 0.000, 19:43:11.679, 1582467191679
10, 537.03, 1447.01, 474.82, -5.59, 0.000, 0.000, 0.000, 19:43:11.679, 1582467191679
11, 515.31, 1402.32, 456.98, -30.98, 0.000, 0.000, 0.000, 19:43:11.693, 1582467191693
12, 490.55, 1365.56, 433.23, -42.72, 0.000, 0.000, 0.000, 19:43:11.693, 1582467191693
13, 506.42, 1409.36, 458.88, -33.29, 0.000, 0.000, 0.000, 19:43:11.709, 1582467191709
14, 494.18, 1343.62, 429.73, -55.40, 0.000, 0.000, 0.000, 19:43:11.709, 1582467191709
15, 505.41, 1349.89, 444.91, -46.23, 0.000, 0.000, 0.000, 19:43:11.709, 1582467191709
16, 507.62, 1384.70, 447.00, -43.71, 0.000, 0.000, 0.000, 19:43:11.709, 1582467191709
17, 499.32, 1371.84, 448.93, -59.85, 0.000, 0.000, 0.000, 19:43:11.723, 1582467191723
18, 524.18, 1439.60, 479.10, -19.75, 0.000, 0.000, 0.000, 19:43:11.723, 1582467191723
19, 507.56, 1377.05, 450.26, -40.92, 0.000, 0.000, 0.000, 19:43:11.739, 1582467191739
20, 502.50, 1389.02, 453.30, -48.75, 0.000, 0.000, 0.000, 19:43:11.739, 1582467191739
21, 510.60, 1424.33, 471.51, -24.15, 0.000, 0.000, 0.000, 19:43:11.739, 1582467191739
22, 487.47, 1350.98, 438.21, -57.99, 0.000, 0.000, 0.000, 19:43:11.739, 1582467191739
23, 512.72, 1375.36, 445.88, -24.77, 0.000, 0.000, 0.000, 19:43:11.753, 1582467191753
24, 499.30, 1391.60, 437.43, -61.92, 0.000, 0.000, 0.000, 19:43:11.753, 1582467191753
25, 494.81, 1374.61, 435.86, -61.09, 0.000, 0.000, 0.000, 19:43:11.769, 1582467191769
26, 513.04, 1399.00, 451.79, -52.56, 0.000, 0.000, 0.000, 19:43:11.769, 1582467191769
27, 514.59, 1405.60, 457.25, -43.71, 0.000, 0.000, 0.000, 19:43:11.769, 1582467191769
28, 544.91, 1467.96, 486.37, -0.39, 0.000, 0.000, 0.000, 19:43:11.769, 1582467191769
29, 526.35, 1391.25, 463.30, -33.03, 0.000, 0.000, 0.000, 19:43:11.783, 1582467191783
30, 488.26, 1326.16, 424.33, -70.52, 0.000, 0.000, 0.000, 19:43:11.783, 1582467191783
31, 518.77, 1381.75, 455.82, -48.68, 0.000, 0.000, 0.000, 19:43:11.799, 1582467191799
32, 539.38, 1399.26, 474.89, -15.17, 0.000, 0.000, 0.000, 19:43:11.799, 1582467191799
33, 515.58, 1385.85, 458.19, -73.81, 0.000, 0.000, 0.000, 19:43:11.799, 1582467191799
34, 539.33, 1415.24, 469.54, -66.77, 0.000, 0.000, 0.000, 19:43:11.799, 1582467191799
35, 551.53, 1425.74, 491.47, -14.56, 0.000, 0.000, 0.000, 19:43:11.813, 1582467191813
36, 515.57, 1337.06, 446.29, -34.07, 0.000, 0.000, 0.000, 19:43:11.813, 1582467191813
37, 496.48, 1344.96, 439.41, -89.51, 0.000, 0.000, 0.000, 19:43:11.829, 1582467191829
38, 515.34, 1351.48, 450.60, -67.10, 0.000, 0.000, 0.000, 19:43:11.829, 1582467191829
39, 530.54, 1387.06, 466.97, -48.63, 0.000, 0.000, 0.000, 19:43:11.829, 1582467191829
40, 531.92, 1403.87, 472.45, -46.76, 0.000, 0.000, 0.000, 19:43:11.829, 1582467191829
41, 513.61, 1362.00, 461.60, -50.50, 0.000, 0.000, 0.000, 19:43:11.843, 1582467191843
42, 517.62, 1410.63, 474.94, -40.91, 0.000, 0.000, 0.000, 19:43:11.843, 1582467191843
43, 522.77, 1411.93, 478.35, -42.00, 0.000, 0.000, 0.000, 19:43:11.859, 1582467191859
44, 516.25, 1386.05, 466.05, -56.79, 0.000, 0.000, 0.000, 19:43:11.859, 1582467191859
45, 501.72, 1365.36, 454.07, -59.90, 0.000, 0.000, 0.000, 19:43:11.859, 1582467191859
46, 501.95, 1347.28, 445.68, -67.95, 0.000, 0.000, 0.000, 19:43:11.859, 1582467191859
47, 538.91, 1398.86, 485.12, -20.88, 0.000, 0.000, 0.000, 19:43:11.873, 1582467191873
48, 502.72, 1379.30, 451.90, -60.99, 0.000, 0.000, 0.000, 19:43:11.873, 1582467191873
49, 497.36, 1373.00, 457.16, -56.52, 0.000, 0.000, 0.000, 19:43:11.889, 1582467191889
50, 517.54, 1394.85, 467.31, -49.85, 0.000, 0.000, 0.000, 19:43:11.889, 1582467191889
51, 506.63, 1372.42, 461.21, -56.90, 0.000, 0.000, 0.000, 19:43:11.889, 1582467191889
52, 504.11, 1388.82, 463.50, -72.17, 0.000, 0.000, 0.000, 19:43:11.889, 1582467191889
53, 530.48, 1409.57, 486.12, -46.65, 0.000, 0.000, 0.000, 19:43:11.903, 1582467191903
54, 491.92, 1373.62, 453.52, -63.21, 0.000, 0.000, 0.000, 19:43:11.903, 1582467191903
55, 495.99, 1360.65, 457.12, -65.78, 0.000, 0.000, 0.000, 19:43:11.919, 1582467191919
56, 515.67, 1400.24, 478.27, -24.61, 0.000, 0.000, 0.000, 19:43:11.919, 1582467191919
57, 516.20, 1407.69, 477.44, -42.23, 0.000, 0.000, 0.000, 19:43:11.919, 1582467191919
58, 550.53, 1470.86, 510.42, -10.35, 0.000, 0.000, 0.000, 19:43:11.919, 1582467191919
59, 517.39, 1395.12, 484.68, -58.30, 0.000, 0.000, 0.000, 19:43:11.933, 1582467191933
60, 461.66, 1311.51, 421.45, -89.33, 0.000, 0.000, 0.000, 19:43:11.933, 1582467191933
61, 467.28, 1319.39, 433.01, -91.80, 0.000, 0.000, 0.000, 19:43:11.949, 1582467191949
62, 495.70, 1369.10, 459.35, -54.41, 0.000, 0.000, 0.000, 19:43:11.949, 1582467191949
63, 503.11, 1414.39, 476.74, -63.21, 0.000, 0.000, 0.000, 19:43:11.949, 1582467191949
64, 480.55, 1360.91, 449.56, -84.38, 0.000, 0.000, 0.000, 19:43:11.949, 1582467191949
65, 500.96, 1372.76, 462.40, -56.84, 0.000, 0.000, 0.000, 19:43:11.963, 1582467191963
66, 475.91, 1378.18, 457.35, -59.00, 0.000, 0.000, 0.000, 19:43:11.963, 1582467191963
67, 462.71, 1331.27, 435.97, -85.50, 0.000, 0.000, 0.000, 19:43:11.979, 1582467191979
68, 488.52, 1374.38, 458.13, -58.29, 0.000, 0.000, 0.000, 19:43:11.979, 1582467191979
69, 474.84, 1376.15, 460.97, -51.73, 0.000, 0.000, 0.000, 19:43:11.979, 1582467191979
70, 477.16, 1369.15, 453.08, -60.15, 0.000, 0.000, 0.000, 19:43:11.979, 1582467191979
71, 490.63, 1389.94, 474.01, -50.17, 0.000, 0.000, 0.000, 19:43:11.993, 1582467191993
72, 491.20, 1412.92, 468.19, -60.43, 0.000, 0.000, 0.000, 19:43:11.993, 1582467191993
73, 495.39, 1392.19, 469.64, -32.83, 0.000, 0.000, 0.000, 19:43:12.009, 1582467192009
74, 460.81, 1341.68, 437.06, -82.84, 0.000, 0.000, 0.000, 19:43:12.009, 1582467192009
75, 456.64, 1346.09, 439.30, -95.58, 0.000, 0.000, 0.000, 19:43:12.010, 1582467192010
76, 468.03, 1366.89, 448.49, -88.68, 0.000, 0.000, 0.000, 19:43:12.010, 1582467192010
77, 465.10, 1367.07, 455.28, -81.60, 0.000, 0.000, 0.000, 19:43:12.023, 1582467192023
78, 443.43, 1347.84, 426.54, -99.48, 0.000, 0.000, 0.000, 19:43:12.023, 1582467192023
79, 480.63, 1399.90, 464.79, -50.76, 0.000, 0.000, 0.000, 19:43:12.039, 1582467192039
80, 492.59, 1442.04, 486.26, -52.21, 0.000, 0.000, 0.000, 19:43:12.039, 1582467192039
81, 424.27, 1321.38, 422.70, -116.40, 0.000, 0.000, 0.000, 19:43:12.039, 1582467192039
82, 454.95, 1362.09, 448.00, -79.53, 0.000, 0.000, 0.000, 19:43:12.039, 1582467192039
83, 463.00, 1363.56, 464.43, -77.65, 0.000, 0.000, 0.000, 19:43:12.053, 1582467192053
84, 451.25, 1351.78, 446.43, -60.62, 0.000, 0.000, 0.000, 19:43:12.053, 1582467192053
85, 441.23, 1351.32, 440.81, -82.04, 0.000, 0.000, 0.000, 19:43:12.069, 1582467192069
86, 441.21, 1350.36, 441.64, -86.17, 0.000, 0.000, 0.000, 19:43:12.069, 1582467192069
87, 460.28, 1384.71, 463.03, -75.93, 0.000, 0.000, 0.000, 19:43:12.069, 1582467192069
88, 483.44, 1436.84, 478.53, -45.89, 0.000, 0.000, 0.000, 19:43:12.069, 1582467192069
89, 452.27, 1369.55, 452.50, -74.90, 0.000, 0.000, 0.000, 19:43:12.083, 1582467192083
90, 414.87, 1323.58, 412.85, -95.09, 0.000, 0.000, 0.000, 19:43:12.083, 1582467192083
91, 455.43, 1387.61, 457.54, -66.09, 0.000, 0.000, 0.000, 19:43:12.099, 1582467192099
92, 459.80, 1392.07, 457.92, -74.50, 0.000, 0.000, 0.000, 19:43:12.099, 1582467192099
93, 436.96, 1363.96, 444.47, -78.60, 0.000, 0.000, 0.000, 19:43:12.100, 1582467192100
94, 450.13, 1389.70, 454.00, -65.43, 0.000, 0.000, 0.000, 19:43:12.100, 1582467192100
95, 464.44, 1414.53, 472.00, -65.62, 0.000, 0.000, 0.000, 19:43:12.113, 1582467192113
96, 474.96, 1444.86, 474.57, -50.73, 0.000, 0.000, 0.000, 19:43:12.113, 1582467192113
97, 426.26, 1324.39, 431.47, -76.61, 0.000, 0.000, 0.000, 19:43:12.129, 1582467192129
98, 435.37, 1335.12, 431.49, -84.18, 0.000, 0.000, 0.000, 19:43:12.129, 1582467192129
99, 429.27, 1348.80, 436.75, -92.40, 0.000, 0.000, 0.000, 19:43:12.130, 1582467192130
100, 446.48, 1397.96, 454.42, -78.52, 0.000, 0.000, 0.000, 19:43:12.130, 1582467192130
101, 442.24, 1361.13, 448.06, -80.26, 0.000, 0.000, 0.000, 19:43:12.143, 1582467192143
102, 470.81, 1460.64, 481.13, -47.27, 0.000, 0.000, 0.000, 19:43:12.143, 1582467192143
103, 439.95, 1381.72, 447.70, -81.76, 0.000, 0.000, 0.000, 19:43:12.175, 1582467192175
104, 404.70, 1296.87, 412.12, -105.06, 0.000, 0.000, 0.000, 19:43:12.175, 1582467192175
105, 427.99, 1354.97, 436.75, -81.96, 0.000, 0.000, 0.000, 19:43:12.175, 1582467192175
106, 438.23, 1367.74, 446.49, -61.70, 0.000, 0.000, 0.000, 19:43:12.175, 1582467192175
107, 435.50, 1372.73, 441.89, -85.08, 0.000, 0.000, 0.000, 19:43:12.176, 1582467192176
108, 439.76, 1401.32, 454.71, -74.43, 0.000, 0.000, 0.000, 19:43:12.176, 1582467192176
109, 423.56, 1357.58, 434.94, -89.81, 0.000, 0.000, 0.000, 19:43:12.189, 1582467192189
110, 456.36, 1401.35, 471.60, -65.61, 0.000, 0.000, 0.000, 19:43:12.189, 1582467192189
111, 418.47, 1356.85, 427.25, -89.34, 0.000, 0.000, 0.000, 19:43:12.190, 1582467192190
112, 425.56, 1337.52, 438.63, -65.86, 0.000, 0.000, 0.000, 19:43:12.190, 1582467192190
113, 444.32, 1388.06, 456.04, -70.41, 0.000, 0.000, 0.000, 19:43:12.203, 1582467192203
114, 414.53, 1355.07, 427.34, -83.81, 0.000, 0.000, 0.000, 19:43:12.203, 1582467192203
115, 439.87, 1393.36, 456.84, -65.20, 0.000, 0.000, 0.000, 19:43:12.219, 1582467192219
116, 409.06, 1325.03, 425.40, -95.55, 0.000, 0.000, 0.000, 19:43:12.219, 1582467192219
117, 416.13, 1347.68, 430.02, -87.54, 0.000, 0.000, 0.000, 19:43:12.220, 1582467192220
118, 428.79, 1396.57, 452.65, -69.48, 0.000, 0.000, 0.000, 19:43:12.220, 1582467192220
119, 443.25, 1394.43, 460.67, -67.21, 0.000, 0.000, 0.000, 19:43:12.233, 1582467192233
120, 413.15, 1354.46, 433.76, -69.94, 0.000, 0.000, 0.000, 19:43:12.233, 1582467192233
121, 417.49, 1356.62, 438.30, -68.47, 0.000, 0.000, 0.000, 19:43:12.249, 1582467192249
122, 426.92, 1404.10, 451.65, -56.18, 0.000, 0.000, 0.000, 19:43:12.249, 1582467192249
123, 400.71, 1415.66, 457.29, -57.87, 0.000, 0.000, 0.000, 19:43:12.250, 1582467192250
124, 385.83, 1362.12, 432.91, -73.53, 0.000, 0.000, 0.000, 19:43:12.250, 1582467192250
125, 402.80, 1374.19, 444.25, -66.38, 0.000, 0.000, 0.000, 19:43:12.263, 1582467192263
126, 378.40, 1348.71, 417.19, -85.54, 0.000, 0.000, 0.000, 19:43:12.263, 1582467192263
127, 441.38, 1445.96, 465.79, -44.25, 0.000, 0.000, 0.000, 19:43:12.279, 1582467192279
128, 372.74, 1295.86, 399.19, -94.24, 0.000, 0.000, 0.000, 19:43:12.279, 1582467192279
129, 381.86, 1350.22, 423.06, -91.36, 0.000, 0.000, 0.000, 19:43:12.280, 1582467192280
130, 418.75, 1419.84, 452.69, -68.31, 0.000, 0.000, 0.000, 19:43:12.280, 1582467192280
131, 450.34, 1465.99, 486.88, -34.59, 0.000, 0.000, 0.000, 19:43:12.293, 1582467192293
132, 360.96, 1302.20, 396.77, -107.86, 0.000, 0.000, 0.000, 19:43:12.294, 1582467192294
133, 375.81, 1318.94, 414.64, -88.41, 0.000, 0.000, 0.000, 19:43:12.309, 1582467192309
134, 387.38, 1345.87, 416.36, -105.79, 0.000, 0.000, 0.000, 19:43:12.309, 1582467192309
135, 403.24, 1372.10, 443.35, -71.31, 0.000, 0.000, 0.000, 19:43:12.310, 1582467192310
136, 407.57, 1383.11, 437.62, -84.56, 0.000, 0.000, 0.000, 19:43:12.310, 1582467192310
137, 431.60, 1427.27, 468.25, -58.76, 0.000, 0.000, 0.000, 19:43:12.324, 1582467192324
138, 396.82, 1359.99, 432.99, -65.68, 0.000, 0.000, 0.000, 19:43:12.324, 1582467192324
139, 405.09, 1365.34, 439.47, -69.24, 0.000, 0.000, 0.000, 19:43:12.339, 1582467192339
140, 419.57, 1385.81, 444.55, -78.91, 0.000, 0.000, 0.000, 19:43:12.339, 1582467192339
141, 397.13, 1353.94, 423.90, -87.89, 0.000, 0.000, 0.000, 19:43:12.340, 1582467192340
142, 430.63, 1419.74, 460.90, -52.06, 0.000, 0.000, 0.000, 19:43:12.340, 1582467192340
143, 429.72, 1369.37, 458.37, -51.12, 0.000, 0.000, 0.000, 19:43:12.354, 1582467192354
144, 449.74, 1459.46, 475.61, -33.29, 0.000, 0.000, 0.000, 19:43:12.354, 1582467192354
145, 382.57, 1335.72, 412.92, -117.59, 0.000, 0.000, 0.000, 19:43:12.369, 1582467192369
146, 392.62, 1323.82, 420.30, -87.72, 0.000, 0.000, 0.000, 19:43:12.369, 1582467192369
147, 408.58, 1366.58, 448.15, -82.34, 0.000, 0.000, 0.000, 19:43:12.370, 1582467192370
148, 419.07, 1370.13, 447.96, -90.38, 0.000, 0.000, 0.000, 19:43:12.370, 1582467192370
149, 433.07, 1384.65, 462.56, -67.22, 0.000, 0.000, 0.000, 19:43:12.383, 1582467192383
150, 424.40, 1401.23, 460.24, -64.73, 0.000, 0.000, 0.000, 19:43:12.383, 1582467192383
151, 438.78, 1404.39, 476.23, -44.53, 0.000, 0.000, 0.000, 19:43:12.399, 1582467192399
152, 469.89, 1481.97, 505.39, -33.31, 0.000, 0.000, 0.000, 19:43:12.399, 1582467192399
153, 446.31, 1435.10, 487.00, -33.02, 0.000, 0.000, 0.000, 19:43:12.400, 1582467192400
154, 372.22, 1280.12, 406.59, -119.68, 0.000, 0.000, 0.000, 19:43:12.400, 1582467192400
155, 421.59, 1342.60, 456.50, -67.31, 0.000, 0.000, 0.000, 19:43:12.413, 1582467192413
156, 421.77, 1381.94, 460.91, -66.52, 0.000, 0.000, 0.000, 19:43:12.413, 1582467192413
157, 441.55, 1441.96, 480.73, -50.52, 0.000, 0.000, 0.000, 19:43:12.429, 1582467192429
158, 425.92, 1388.86, 462.71, -63.03, 0.000, 0.000, 0.000, 19:43:12.429, 1582467192429
159, 422.78, 1368.87, 449.34, -78.74, 0.000, 0.000, 0.000, 19:43:12.431, 1582467192431
160, 420.74, 1359.38, 449.45, -67.92, 0.000, 0.000, 0.000, 19:43:12.431, 1582467192431
161, 430.98, 1372.56, 460.06, -67.36, 0.000, 0.000, 0.000, 19:43:12.443, 1582467192443
162, 415.03, 1351.95, 442.58, -67.06, 0.000, 0.000, 0.000, 19:43:12.443, 1582467192443
163, 436.02, 1396.39, 460.23, -72.63, 0.000, 0.000, 0.000, 19:43:12.459, 1582467192459
164, 461.13, 1464.40, 497.40, -38.16, 0.000, 0.000, 0.000, 19:43:12.459, 1582467192459
165, 447.80, 1441.26, 483.68, -55.15, 0.000, 0.000, 0.000, 19:43:12.460, 1582467192460
166, 438.67, 1384.57, 465.62, -45.51, 0.000, 0.000, 0.000, 19:43:12.460, 1582467192460
167, 451.69, 1403.09, 481.42, -40.92, 0.000, 0.000, 0.000, 19:43:12.474, 1582467192474
168, 452.89, 1438.87, 489.12, -28.73, 0.000, 0.000, 0.000, 19:43:12.474, 1582467192474
169, 427.97, 1362.44, 452.14, -59.78, 0.000, 0.000, 0.000, 19:43:12.489, 1582467192489
170, 444.87, 1387.04, 466.24, -50.25, 0.000, 0.000, 0.000, 19:43:12.489, 1582467192489
171, 453.35, 1428.07, 484.70, -40.94, 0.000, 0.000, 0.000, 19:43:12.490, 1582467192490
172, 446.22, 1400.44, 473.64, -48.21, 0.000, 0.000, 0.000, 19:43:12.490, 1582467192490
173, 445.89, 1393.40, 476.95, -39.10, 0.000, 0.000, 0.000, 19:43:12.504, 1582467192504
174, 435.91, 1406.12, 463.38, -49.35, 0.000, 0.000, 0.000, 19:43:12.504, 1582467192504
175, 446.44, 1383.00, 460.63, -38.90, 0.000, 0.000, 0.000, 19:43:12.519, 1582467192519
176, 472.37, 1438.92, 486.42, -14.48, 0.000, 0.000, 0.000, 19:43:12.519, 1582467192519
177, 448.60, 1396.10, 465.41, -49.87, 0.000, 0.000, 0.000, 19:43:12.520, 1582467192520
178, 459.90, 1435.84, 478.39, -45.46, 0.000, 0.000, 0.000, 19:43:12.520, 1582467192520
179, 466.08, 1411.14, 480.97, -31.30, 0.000, 0.000, 0.000, 19:43:12.533, 1582467192533
180, 433.15, 1369.78, 446.10, -55.12, 0.000, 0.000, 0.000, 19:43:12.533, 1582467192533
181, 465.94, 1406.58, 475.11, -19.32, 0.000, 0.000, 0.000, 19:43:12.549, 1582467192549
182, 464.30, 1420.77, 471.23, -37.86, 0.000, 0.000, 0.000, 19:43:12.549, 1582467192549
183, 472.95, 1443.95, 484.48, -43.34, 0.000, 0.000, 0.000, 19:43:12.550, 1582467192550
184, 477.38, 1438.80, 494.94, -27.23, 0.000, 0.000, 0.000, 19:43:12.550, 1582467192550
185, 476.43, 1415.74, 488.43, -17.65, 0.000, 0.000, 0.000, 19:43:12.564, 1582467192564
186, 453.91, 1398.40, 471.46, -35.00, 0.000, 0.000, 0.000, 19:43:12.564, 1582467192564
187, 466.54, 1409.51, 478.95, -32.94, 0.000, 0.000, 0.000, 19:43:12.579, 1582467192579
188, 469.08, 1418.05, 478.92, -34.57, 0.000, 0.000, 0.000, 19:43:12.579, 1582467192579
189, 470.59, 1413.05, 483.36, -24.34, 0.000, 0.000, 0.000, 19:43:12.580, 1582467192580
190, 492.47, 1484.44, 509.15, -14.97, 0.000, 0.000, 0.000, 19:43:12.580, 1582467192580
191, 496.70, 1457.58, 510.28, -15.97, 0.000, 0.000, 0.000, 19:43:12.593, 1582467192593
192, 451.48, 1376.73, 467.29, -27.57, 0.000, 0.000, 0.000, 19:43:12.593, 1582467192593
193, 443.33, 1370.66, 453.14, -49.74, 0.000, 0.000, 0.000, 19:43:12.609, 1582467192609
194, 458.32, 1385.62, 459.54, -28.14, 0.000, 0.000, 0.000, 19:43:12.609, 1582467192609
195, 454.91, 1394.95, 461.96, -38.97, 0.000, 0.000, 0.000, 19:43:12.610, 1582467192610
196, 477.15, 1441.89, 476.49, -28.00, 0.000, 0.000, 0.000, 19:43:12.610, 1582467192610
197, 484.71, 1446.22, 478.60, -28.62, 0.000, 0.000, 0.000, 19:43:12.624, 1582467192624
198, 476.78, 1454.22, 469.37, -22.89, 0.000, 0.000, 0.000, 19:43:12.624, 1582467192624
199, 450.64, 1375.97, 446.31, -42.48, 0.000, 0.000, 0.000, 19:43:12.639, 1582467192639
200, 465.86, 1393.87, 457.28, -28.02, 0.000, 0.000, 0.000, 19:43:12.639, 1582467192639
0, 464.97, 1436.63, 461.68, -39.93, 0.000, 0.000, 0.000, 19:43:12.640, 1582467192640
1, 458.37, 1397.90, 453.48, -31.81, 0.000, 0.000, 0.000, 19:43:12.654, 1582467192654
2, 470.08, 1404.43, 465.48, -33.06, 0.000, 0.000, 0.000, 19:43:12.654, 1582467192654
3, 431.44, 1357.94, 429.84, -60.31, 0.000, 0.000, 0.000, 19:43:12.655, 1582467192655
4, 454.90, 1391.43, 452.89, -31.29, 0.000, 0.000, 0.000, 19:43:12.655, 1582467192655
5, 466.92, 1403.66, 467.47, -16.65, 0.000, 0.000, 0.000, 19:43:12.668, 1582467192668
6, 442.20, 1395.19, 444.18, -46.18, 0.000, 0.000, 0.000, 19:43:12.668, 1582467192668
7, 457.49, 1412.10, 456.36, -36.77, 0.000, 0.000, 0.000, 19:43:12.700, 1582467192700
8, 472.52, 1431.13, 467.32, -34.93, 0.000, 0.000, 0.000, 19:43:12.700, 1582467192700
9, 473.39, 1446.42, 473.87, -39.33, 0.000, 0.000, 0.000, 19:43:12.700, 1582467192700
10, 459.60, 1391.00, 461.94, -24.68, 0.000, 0.000, 0.000, 19:43:12.700, 1582467192700
11, 465.38, 1391.03, 460.23, -21.63, 0.000, 0.000, 0.000, 19:43:12.701, 1582467192701
12, 451.78, 1384.76, 447.18, -48.85, 0.000, 0.000, 0.000, 19:43:12.701, 1582467192701
13, 451.58, 1375.60, 446.87, -62.16, 0.000, 0.000, 0.000, 19:43:12.730, 1582467192730
14, 465.64, 1390.07, 463.05, -37.78, 0.000, 0.000, 0.000, 19:43:12.730, 1582467192730
15, 448.11, 1392.38, 438.27, -49.11, 0.000, 0.000, 0.000, 19:43:12.730, 1582467192730
16, 463.65, 1415.53, 463.32, -33.46, 0.000, 0.000, 0.000, 19:43:12.730, 1582467192730
17, 481.94, 1415.88, 467.93, -18.18, 0.000, 0.000, 0.000, 19:43:12.732, 1582467192732
18, 475.36, 1396.82, 470.63, -4.51, 0.000, 0.000, 0.000, 19:43:12.732, 1582467192732
19, 464.36, 1410.25, 458.65, -43.59, 0.000, 0.000, 0.000, 19:43:12.744, 1582467192744
20, 469.36, 1389.58, 466.52, -39.65, 0.000, 0.000, 0.000, 19:43:12.744, 1582467192744
21, 449.73, 1401.86, 445.77, -53.97, 0.000, 0.000, 0.000, 19:43:12.745, 1582467192745
22, 472.50, 1402.81, 466.06, -28.72, 0.000, 0.000, 0.000, 19:43:12.745, 1582467192745
23, 459.50, 1369.42, 454.39, -42.38, 0.000, 0.000, 0.000, 19:43:12.759, 1582467192759
24, 446.35, 1380.92, 447.29, -39.74, 0.000, 0.000, 0.000, 19:43:12.759, 1582467192759
25, 468.17, 1417.34, 466.82, -25.92, 0.000, 0.000, 0.000, 19:43:12.774, 1582467192774
26, 468.68, 1395.24, 463.00, -25.48, 0.000, 0.000, 0.000, 19:43:12.774, 1582467192774
27, 463.00, 1390.15, 462.03, -22.58, 0.000, 0.000, 0.000, 19:43:12.775, 1582467192775
28, 452.36, 1386.21, 456.08, -38.59, 0.000, 0.000, 0.000, 19:43:12.775, 1582467192775
29, 450.70, 1353.14, 457.14, -37.98, 0.000, 0.000, 0.000, 19:43:12.789, 1582467192789
30, 451.07, 1376.80, 455.84, -23.30, 0.000, 0.000, 0.000, 19:43:12.789, 1582467192789
31, 485.99, 1433.99, 487.70, 3.99, 0.000, 0.000, 0.000, 19:43:12.804, 1582467192804
32, 458.26, 1397.99, 455.77, -54.66, 0.000, 0.000, 0.000, 19:43:12.804, 1582467192804
33, 443.42, 1379.62, 449.35, -46.10, 0.000, 0.000, 0.000, 19:43:12.805, 1582467192805
34, 459.73, 1388.69, 458.95, -29.31, 0.000, 0.000, 0.000, 19:43:12.805, 1582467192805
35, 475.54, 1409.92, 476.31, -14.94, 0.000, 0.000, 0.000, 19:43:12.835, 1582467192835
36, 448.34, 1396.94, 454.12, -33.07, 0.000, 0.000, 0.000, 19:43:12.835, 1582467192835
37, 467.07, 1392.41, 466.37, -5.13, 0.000, 0.000, 0.000, 19:43:12.836, 1582467192836
38, 481.92, 1444.42, 477.76, -19.65, 0.000, 0.000, 0.000, 19:43:12.836, 1582467192836
39, 449.92, 1385.22, 456.00, -37.16, 0.000, 0.000, 0.000, 19:43:12.836, 1582467192836
40, 460.57, 1396.15, 461.06, -20.23, 0.000, 0.000, 0.000, 19:43:12.836, 1582467192836
41, 490.19, 1424.07, 485.37, -12.88, 0.000, 0.000, 0.000, 19:43:12.865, 1582467192865
42, 466.70, 1402.74, 458.55, -5.33, 0.000, 0.000, 0.000, 19:43:12.865, 1582467192865
43, 479.80, 1408.68, 472.76, -2.40, 0.000, 0.000, 0.000, 19:43:12.866, 1582467192866
44, 451.72, 1379.08, 451.29, -31.76, 0.000, 0.000, 0.000, 19:43:12.866, 1582467192866
45, 466.94, 1401.67, 466.42, -4.73, 0.000, 0.000, 0.000, 19:43:12.866, 1582467192866
46, 497.60, 1448.64, 488.99, 22.20, 0.000, 0.000, 0.000, 19:43:12.866, 1582467192866
47, 505.76, 1473.29, 502.96, -5.77, 0.000, 0.000, 0.000, 19:43:12.879, 1582467192879
