%OpenBCI Raw EEG Data
%Number of channels = 4
%Sample Rate = 200.0 Hz
%First Column = SampleIndex
%Last Column = Timestamp 
%Other Columns = EEG data in microvolts followed by Accel Data (in G) interleaved with Aux Data
101, 897.14, 608.28, 706.02, 381.60, 0.000, 0.000, 0.000, 20:50:53.881, 1582471253881
102, 906.09, 562.17, 702.45, 299.78, 0.000, 0.000, 0.000, 20:50:53.881, 1582471253881
103, 929.66, 577.45, 723.11, 270.91, 0.000, 0.000, 0.000, 20:50:53.897, 1582471253897
104, 965.87, 601.93, 754.81, 290.46, 0.000, 0.000, 0.000, 20:50:53.897, 1582471253897
105, 947.53, 641.91, 768.84, 398.19, 0.000, 0.000, 0.000, 20:50:53.897, 1582471253897
106, 929.81, 577.25, 742.23, 320.56, 0.000, 0.000, 0.000, 20:50:53.897, 1582471253897
107, 971.41, 618.98, 745.05, 318.78, 0.000, 0.000, 0.000, 20:50:53.911, 1582471253911
108, 923.77, 568.21, 724.44, 272.26, 0.000, 0.000, 0.000, 20:50:53.911, 1582471253911
109, 888.03, 592.27, 717.10, 369.72, 0.000, 0.000, 0.000, 20:50:53.926, 1582471253926
110, 910.01, 563.13, 730.53, 309.53, 0.000, 0.000, 0.000, 20:50:53.926, 1582471253926
111, 931.58, 576.73, 739.31, 283.77, 0.000, 0.000, 0.000, 20:50:53.927, 1582471253927
112, 932.38, 580.20, 732.84, 282.43, 0.000, 0.000, 0.000, 20:50:53.927, 1582471253927
113, 925.03, 631.80, 724.12, 394.12, 0.000, 0.000, 0.000, 20:50:53.941, 1582471253941
114, 901.62, 565.49, 715.68, 305.06, 0.000, 0.000, 0.000, 20:50:53.941, 1582471253941
115, 936.33, 583.65, 729.89, 294.03, 0.000, 0.000, 0.000, 20:50:53.957, 1582471253957
116, 926.07, 582.14, 724.82, 283.03, 0.000, 0.000, 0.000, 20:50:53.957, 1582471253957
117, 898.60, 605.71, 713.22, 373.41, 0.000, 0.000, 0.000, 20:50:53.957, 1582471253957
118, 919.32, 581.06, 724.71, 326.54, 0.000, 0.000, 0.000, 20:50:53.957, 1582471253957
119, 936.22, 589.92, 743.04, 304.80, 0.000, 0.000, 0.000, 20:50:53.971, 1582471253971
120, 935.89, 578.77, 726.39, 273.17, 0.000, 0.000, 0.000, 20:50:53.971, 1582471253971
121, 946.46, 642.17, 744.82, 399.33, 0.000, 0.000, 0.000, 20:50:53.987, 1582471253987
122, 933.11, 586.79, 743.66, 336.33, 0.000, 0.000, 0.000, 20:50:53.987, 1582471253987
123, 927.87, 575.65, 727.67, 293.41, 0.000, 0.000, 0.000, 20:50:53.987, 1582471253987
124, 900.99, 561.77, 701.59, 263.05, 0.000, 0.000, 0.000, 20:50:53.987, 1582471253987
125, 908.13, 614.90, 729.78, 386.01, 0.000, 0.000, 0.000, 20:50:54.001, 1582471254001
126, 928.58, 577.16, 734.19, 315.27, 0.000, 0.000, 0.000, 20:50:54.001, 1582471254001
127, 927.58, 575.52, 723.72, 288.59, 0.000, 0.000, 0.000, 20:50:54.017, 1582471254017
128, 940.29, 581.27, 757.92, 286.64, 0.000, 0.000, 0.000, 20:50:54.017, 1582471254017
129, 907.38, 613.63, 712.63, 378.92, 0.000, 0.000, 0.000, 20:50:54.017, 1582471254017
130, 931.03, 594.11, 734.67, 338.47, 0.000, 0.000, 0.000, 20:50:54.017, 1582471254017
131, 905.58, 562.92, 707.89, 296.88, 0.000, 0.000, 0.000, 20:50:54.031, 1582471254031
132, 950.83, 591.81, 746.05, 286.10, 0.000, 0.000, 0.000, 20:50:54.031, 1582471254031
133, 961.09, 648.02, 773.96, 409.48, 0.000, 0.000, 0.000, 20:50:54.047, 1582471254047
134, 932.75, 592.51, 732.00, 332.55, 0.000, 0.000, 0.000, 20:50:54.047, 1582471254047
135, 914.73, 570.52, 707.49, 283.08, 0.000, 0.000, 0.000, 20:50:54.047, 1582471254047
136, 926.59, 579.31, 727.78, 282.21, 0.000, 0.000, 0.000, 20:50:54.047, 1582471254047
137, 970.05, 657.10, 771.82, 421.40, 0.000, 0.000, 0.000, 20:50:54.061, 1582471254061
138, 932.85, 595.78, 741.07, 335.48, 0.000, 0.000, 0.000, 20:50:54.061, 1582471254061
139, 935.83, 583.03, 742.28, 295.56, 0.000, 0.000, 0.000, 20:50:54.077, 1582471254077
140, 940.16, 585.08, 744.18, 288.31, 0.000, 0.000, 0.000, 20:50:54.077, 1582471254077
141, 956.34, 649.47, 755.16, 407.39, 0.000, 0.000, 0.000, 20:50:54.077, 1582471254077
142, 889.33, 562.65, 691.16, 310.58, 0.000, 0.000, 0.000, 20:50:54.077, 1582471254077
143, 934.58, 588.11, 733.33, 309.09, 0.000, 0.000, 0.000, 20:50:54.091, 1582471254091
144, 937.24, 578.78, 734.94, 276.55, 0.000, 0.000, 0.000, 20:50:54.091, 1582471254091
145, 930.62, 628.46, 742.50, 387.57, 0.000, 0.000, 0.000, 20:50:54.107, 1582471254107
146, 917.07, 579.09, 726.70, 326.01, 0.000, 0.000, 0.000, 20:50:54.107, 1582471254107
147, 913.14, 568.64, 694.24, 279.28, 0.000, 0.000, 0.000, 20:50:54.107, 1582471254107
148, 956.64, 586.72, 775.32, 290.77, 0.000, 0.000, 0.000, 20:50:54.107, 1582471254107
149, 912.76, 620.77, 722.34, 386.98, 0.000, 0.000, 0.000, 20:50:54.121, 1582471254121
150, 915.82, 574.54, 740.96, 328.74, 0.000, 0.000, 0.000, 20:50:54.121, 1582471254121
151, 928.15, 577.45, 728.03, 299.37, 0.000, 0.000, 0.000, 20:50:54.137, 1582471254137
152, 953.93, 594.87, 763.07, 294.72, 0.000, 0.000, 0.000, 20:50:54.137, 1582471254137
153, 939.09, 631.37, 759.81, 396.10, 0.000, 0.000, 0.000, 20:50:54.137, 1582471254137
154, 908.37, 581.22, 711.65, 326.43, 0.000, 0.000, 0.000, 20:50:54.137, 1582471254137
155, 971.97, 605.46, 802.55, 331.85, 0.000, 0.000, 0.000, 20:50:54.151, 1582471254151
156, 911.02, 567.08, 683.22, 255.38, 0.000, 0.000, 0.000, 20:50:54.151, 1582471254151
157, 932.31, 635.79, 729.90, 393.77, 0.000, 0.000, 0.000, 20:50:54.167, 1582471254167
158, 969.94, 620.38, 765.06, 358.19, 0.000, 0.000, 0.000, 20:50:54.167, 1582471254167
159, 910.38, 570.87, 729.49, 290.75, 0.000, 0.000, 0.000, 20:50:54.167, 1582471254167
160, 935.43, 579.81, 749.50, 280.34, 0.000, 0.000, 0.000, 20:50:54.167, 1582471254167
161, 958.81, 659.48, 773.73, 421.20, 0.000, 0.000, 0.000, 20:50:54.181, 1582471254181
162, 936.56, 599.69, 743.56, 339.69, 0.000, 0.000, 0.000, 20:50:54.181, 1582471254181
163, 958.17, 598.56, 786.84, 323.87, 0.000, 0.000, 0.000, 20:50:54.196, 1582471254196
164, 957.05, 602.32, 745.39, 297.40, 0.000, 0.000, 0.000, 20:50:54.196, 1582471254196
165, 973.30, 665.10, 783.63, 413.61, 0.000, 0.000, 0.000, 20:50:54.197, 1582471254197
166, 918.84, 589.02, 732.42, 338.21, 0.000, 0.000, 0.000, 20:50:54.197, 1582471254197
167, 946.43, 599.48, 737.78, 313.42, 0.000, 0.000, 0.000, 20:50:54.211, 1582471254211
168, 970.96, 608.31, 761.11, 294.69, 0.000, 0.000, 0.000, 20:50:54.211, 1582471254211
169, 962.87, 655.85, 782.76, 418.56, 0.000, 0.000, 0.000, 20:50:54.242, 1582471254242
170, 945.04, 613.62, 754.73, 360.21, 0.000, 0.000, 0.000, 20:50:54.242, 1582471254242
171, 965.73, 606.37, 771.76, 321.93, 0.000, 0.000, 0.000, 20:50:54.243, 1582471254243
172, 959.29, 599.79, 754.55, 297.33, 0.000, 0.000, 0.000, 20:50:54.243, 1582471254243
173, 953.51, 654.02, 774.70, 410.60, 0.000, 0.000, 0.000, 20:50:54.244, 1582471254244
174, 961.39, 622.66, 770.88, 366.26, 0.000, 0.000, 0.000, 20:50:54.244, 1582471254244
175, 987.19, 620.43, 787.03, 338.03, 0.000, 0.000, 0.000, 20:50:54.257, 1582471254257
176, 963.07, 614.75, 755.46, 312.60, 0.000, 0.000, 0.000, 20:50:54.257, 1582471254257
177, 944.36, 633.20, 743.33, 383.32, 0.000, 0.000, 0.000, 20:50:54.257, 1582471254257
178, 908.54, 581.87, 717.38, 334.60, 0.000, 0.000, 0.000, 20:50:54.257, 1582471254257
179, 950.88, 600.57, 746.68, 319.51, 0.000, 0.000, 0.000, 20:50:54.271, 1582471254271
180, 949.27, 581.98, 758.37, 276.48, 0.000, 0.000, 0.000, 20:50:54.271, 1582471254271
181, 944.88, 643.56, 757.83, 394.65, 0.000, 0.000, 0.000, 20:50:54.287, 1582471254287
182, 929.74, 605.09, 710.69, 342.05, 0.000, 0.000, 0.000, 20:50:54.287, 1582471254287
183, 928.87, 578.61, 735.29, 306.80, 0.000, 0.000, 0.000, 20:50:54.287, 1582471254287
184, 970.44, 602.82, 775.32, 299.98, 0.000, 0.000, 0.000, 20:50:54.287, 1582471254287
185, 959.07, 657.71, 764.49, 416.78, 0.000, 0.000, 0.000, 20:50:54.301, 1582471254301
186, 968.21, 618.99, 766.78, 356.01, 0.000, 0.000, 0.000, 20:50:54.301, 1582471254301
187, 936.12, 590.41, 725.85, 302.72, 0.000, 0.000, 0.000, 20:50:54.317, 1582471254317
188, 978.29, 609.66, 782.72, 302.73, 0.000, 0.000, 0.000, 20:50:54.317, 1582471254317
189, 932.91, 637.39, 741.23, 394.88, 0.000, 0.000, 0.000, 20:50:54.317, 1582471254317
190, 934.28, 601.13, 733.20, 347.63, 0.000, 0.000, 0.000, 20:50:54.317, 1582471254317
191, 944.30, 595.66, 752.53, 321.30, 0.000, 0.000, 0.000, 20:50:54.331, 1582471254331
192, 942.01, 579.45, 734.29, 282.60, 0.000, 0.000, 0.000, 20:50:54.331, 1582471254331
193, 956.09, 644.42, 778.50, 402.99, 0.000, 0.000, 0.000, 20:50:54.347, 1582471254347
194, 926.40, 598.90, 708.08, 337.70, 0.000, 0.000, 0.000, 20:50:54.347, 1582471254347
195, 933.68, 580.01, 740.26, 298.82, 0.000, 0.000, 0.000, 20:50:54.347, 1582471254347
196, 920.38, 567.65, 704.57, 264.60, 0.000, 0.000, 0.000, 20:50:54.347, 1582471254347
197, 948.78, 645.87, 776.87, 405.44, 0.000, 0.000, 0.000, 20:50:54.361, 1582471254361
198, 940.13, 593.23, 745.34, 341.37, 0.000, 0.000, 0.000, 20:50:54.361, 1582471254361
199, 921.89, 583.20, 704.27, 298.36, 0.000, 0.000, 0.000, 20:50:54.393, 1582471254393
200, 953.75, 593.93, 747.88, 286.83, 0.000, 0.000, 0.000, 20:50:54.393, 1582471254393
0, 914.29, 621.05, 729.83, 383.25, 0.000, 0.000, 0.000, 20:50:54.393, 1582471254393
1, 921.11, 585.46, 744.04, 344.88, 0.000, 0.000, 0.000, 20:50:54.394, 1582471254394
2, 940.31, 592.18, 738.19, 314.63, 0.000, 0.000, 0.000, 20:50:54.394, 1582471254394
3, 953.08, 592.74, 737.49, 279.00, 0.000, 0.000, 0.000, 20:50:54.395, 1582471254395
4, 954.70, 661.78, 755.41, 401.66, 0.000, 0.000, 0.000, 20:50:54.395, 1582471254395
5, 905.93, 593.34, 726.43, 353.99, 0.000, 0.000, 0.000, 20:50:54.406, 1582471254406
6, 926.73, 570.12, 725.55, 296.36, 0.000, 0.000, 0.000, 20:50:54.406, 1582471254406
7, 940.38, 583.17, 731.15, 273.01, 0.000, 0.000, 0.000, 20:50:54.422, 1582471254422
8, 941.50, 644.98, 750.59, 393.07, 0.000, 0.000, 0.000, 20:50:54.422, 1582471254422
9, 935.69, 611.54, 733.94, 352.59, 0.000, 0.000, 0.000, 20:50:54.422, 1582471254422
10, 950.07, 599.43, 740.59, 309.36, 0.000, 0.000, 0.000, 20:50:54.422, 1582471254422
11, 912.43, 572.79, 711.47, 279.19, 0.000, 0.000, 0.000, 20:50:54.436, 1582471254436
12, 959.29, 642.87, 767.73, 405.34, 0.000, 0.000, 0.000, 20:50:54.436, 1582471254436
13, 916.75, 594.64, 729.08, 348.08, 0.000, 0.000, 0.000, 20:50:54.451, 1582471254451
14, 922.10, 586.42, 716.34, 303.05, 0.000, 0.000, 0.000, 20:50:54.451, 1582471254451
15, 974.15, 609.46, 771.31, 294.73, 0.000, 0.000, 0.000, 20:50:54.452, 1582471254452
16, 961.29, 654.45, 761.53, 409.66, 0.000, 0.000, 0.000, 20:50:54.452, 1582471254452
17, 925.73, 608.29, 724.83, 362.31, 0.000, 0.000, 0.000, 20:50:54.466, 1582471254466
18, 924.85, 578.06, 719.56, 299.02, 0.000, 0.000, 0.000, 20:50:54.466, 1582471254466
19, 948.59, 585.66, 743.61, 282.20, 0.000, 0.000, 0.000, 20:50:54.481, 1582471254481
20, 925.45, 624.10, 729.61, 383.51, 0.000, 0.000, 0.000, 20:50:54.481, 1582471254481
21, 933.03, 595.36, 734.68, 353.01, 0.000, 0.000, 0.000, 20:50:54.482, 1582471254482
22, 942.72, 589.55, 736.44, 304.16, 0.000, 0.000, 0.000, 20:50:54.482, 1582471254482
23, 929.81, 580.38, 720.70, 279.55, 0.000, 0.000, 0.000, 20:50:54.496, 1582471254496
24, 935.18, 619.92, 744.79, 376.59, 0.000, 0.000, 0.000, 20:50:54.496, 1582471254496
25, 921.66, 598.78, 701.48, 339.18, 0.000, 0.000, 0.000, 20:50:54.512, 1582471254512
26, 973.33, 613.10, 781.79, 331.34, 0.000, 0.000, 0.000, 20:50:54.512, 1582471254512
27, 937.67, 577.54, 731.77, 276.89, 0.000, 0.000, 0.000, 20:50:54.512, 1582471254512
28, 924.99, 627.58, 718.90, 371.77, 0.000, 0.000, 0.000, 20:50:54.512, 1582471254512
29, 924.86, 601.67, 723.99, 368.02, 0.000, 0.000, 0.000, 20:50:54.526, 1582471254526
30, 927.48, 582.11, 715.48, 294.66, 0.000, 0.000, 0.000, 20:50:54.526, 1582471254526
31, 964.73, 599.24, 769.93, 296.35, 0.000, 0.000, 0.000, 20:50:54.542, 1582471254542
32, 948.01, 647.99, 731.57, 399.02, 0.000, 0.000, 0.000, 20:50:54.542, 1582471254542
33, 945.24, 610.39, 732.36, 356.65, 0.000, 0.000, 0.000, 20:50:54.542, 1582471254542
34, 941.39, 585.51, 741.91, 313.90, 0.000, 0.000, 0.000, 20:50:54.542, 1582471254542
35, 958.02, 595.77, 737.19, 287.27, 0.000, 0.000, 0.000, 20:50:54.556, 1582471254556
36, 959.28, 642.70, 751.51, 392.06, 0.000, 0.000, 0.000, 20:50:54.556, 1582471254556
37, 929.97, 599.91, 733.61, 348.13, 0.000, 0.000, 0.000, 20:50:54.572, 1582471254572
38, 954.47, 604.20, 739.77, 322.07, 0.000, 0.000, 0.000, 20:50:54.572, 1582471254572
39, 952.96, 575.00, 744.75, 279.62, 0.000, 0.000, 0.000, 20:50:54.572, 1582471254572
40, 926.82, 636.76, 707.16, 380.51, 0.000, 0.000, 0.000, 20:50:54.572, 1582471254572
41, 939.43, 612.82, 733.72, 367.83, 0.000, 0.000, 0.000, 20:50:54.586, 1582471254586
42, 925.12, 573.18, 700.30, 292.30, 0.000, 0.000, 0.000, 20:50:54.586, 1582471254586
43, 947.23, 582.73, 721.82, 281.58, 0.000, 0.000, 0.000, 20:50:54.602, 1582471254602
44, 938.15, 630.43, 746.98, 374.80, 0.000, 0.000, 0.000, 20:50:54.602, 1582471254602
45, 952.33, 610.36, 758.69, 364.28, 0.000, 0.000, 0.000, 20:50:54.602, 1582471254602
46, 908.77, 566.37, 689.79, 292.54, 0.000, 0.000, 0.000, 20:50:54.602, 1582471254602
47, 962.34, 596.95, 734.77, 280.65, 0.000, 0.000, 0.000, 20:50:54.616, 1582471254616
48, 947.33, 634.13, 744.65, 378.13, 0.000, 0.000, 0.000, 20:50:54.616, 1582471254616
49, 916.95, 585.30, 716.94, 344.61, 0.000, 0.000, 0.000, 20:50:54.632, 1582471254632
50, 943.49, 582.85, 724.88, 309.74, 0.000, 0.000, 0.000, 20:50:54.632, 1582471254632
51, 951.00, 582.08, 726.13, 278.83, 0.000, 0.000, 0.000, 20:50:54.632, 1582471254632
52, 959.16, 648.37, 743.02, 389.69, 0.000, 0.000, 0.000, 20:50:54.632, 1582471254632
53, 928.94, 603.68, 723.70, 359.77, 0.000, 0.000, 0.000, 20:50:54.646, 1582471254646
54, 956.65, 592.88, 730.55, 309.02, 0.000, 0.000, 0.000, 20:50:54.646, 1582471254646
55, 969.53, 596.68, 746.83, 291.67, 0.000, 0.000, 0.000, 20:50:54.662, 1582471254662
56, 989.03, 664.92, 789.26, 409.15, 0.000, 0.000, 0.000, 20:50:54.662, 1582471254662
57, 932.20, 610.87, 701.63, 350.08, 0.000, 0.000, 0.000, 20:50:54.662, 1582471254662
58, 944.81, 594.07, 722.27, 310.91, 0.000, 0.000, 0.000, 20:50:54.662, 1582471254662
59, 958.83, 586.80, 742.29, 294.46, 0.000, 0.000, 0.000, 20:50:54.676, 1582471254676
60, 953.61, 636.38, 741.27, 378.65, 0.000, 0.000, 0.000, 20:50:54.676, 1582471254676
61, 941.95, 607.04, 726.82, 359.36, 0.000, 0.000, 0.000, 20:50:54.692, 1582471254692
62, 1007.39, 640.45, 783.59, 368.22, 0.000, 0.000, 0.000, 20:50:54.692, 1582471254692
63, 1014.38, 636.15, 786.57, 322.79, 0.000, 0.000, 0.000, 20:50:54.692, 1582471254692
64, 981.14, 648.84, 772.23, 395.94, 0.000, 0.000, 0.000, 20:50:54.692, 1582471254692
65, 892.85, 575.16, 691.49, 347.98, 0.000, 0.000, 0.000, 20:50:54.706, 1582471254706
66, 919.85, 563.40, 701.69, 292.04, 0.000, 0.000, 0.000, 20:50:54.706, 1582471254706
67, 916.13, 555.51, 688.30, 262.75, 0.000, 0.000, 0.000, 20:50:54.721, 1582471254721
68, 945.35, 618.58, 724.61, 374.28, 0.000, 0.000, 0.000, 20:50:54.721, 1582471254721
69, 907.20, 577.47, 690.88, 337.46, 0.000, 0.000, 0.000, 20:50:54.722, 1582471254722
70, 947.36, 587.36, 712.66, 304.40, 0.000, 0.000, 0.000, 20:50:54.722, 1582471254722
71, 906.92, 542.89, 675.98, 252.22, 0.000, 0.000, 0.000, 20:50:54.736, 1582471254736
72, 906.54, 587.11, 686.02, 327.42, 0.000, 0.000, 0.000, 20:50:54.736, 1582471254736
73, 912.28, 575.48, 687.49, 340.92, 0.000, 0.000, 0.000, 20:50:54.752, 1582471254752
74, 926.25, 572.29, 695.35, 299.77, 0.000, 0.000, 0.000, 20:50:54.752, 1582471254752
75, 921.38, 544.64, 711.82, 255.73, 0.000, 0.000, 0.000, 20:50:54.766, 1582471254766
76, 910.88, 600.41, 680.46, 348.10, 0.000, 0.000, 0.000, 20:50:54.766, 1582471254766
77, 925.23, 596.99, 704.70, 362.03, 0.000, 0.000, 0.000, 20:50:54.767, 1582471254767
78, 931.98, 569.26, 703.12, 296.30, 0.000, 0.000, 0.000, 20:50:54.767, 1582471254767
79, 969.26, 579.99, 747.40, 284.07, 0.000, 0.000, 0.000, 20:50:54.782, 1582471254782
80, 964.45, 643.73, 750.98, 390.68, 0.000, 0.000, 0.000, 20:50:54.782, 1582471254782
81, 927.49, 585.26, 714.01, 352.65, 0.000, 0.000, 0.000, 20:50:54.782, 1582471254782
82, 960.48, 593.53, 727.01, 325.94, 0.000, 0.000, 0.000, 20:50:54.782, 1582471254782
83, 963.22, 586.90, 732.32, 291.02, 0.000, 0.000, 0.000, 20:50:54.796, 1582471254796
84, 1016.28, 674.71, 770.22, 409.16, 0.000, 0.000, 0.000, 20:50:54.796, 1582471254796
85, 970.06, 628.72, 759.56, 399.83, 0.000, 0.000, 0.000, 20:50:54.812, 1582471254812
86, 948.29, 592.78, 722.99, 330.61, 0.000, 0.000, 0.000, 20:50:54.812, 1582471254812
87, 1023.11, 630.10, 791.92, 330.49, 0.000, 0.000, 0.000, 20:50:54.812, 1582471254812
88, 979.45, 655.71, 756.18, 400.00, 0.000, 0.000, 0.000, 20:50:54.812, 1582471254812
89, 977.34, 643.83, 754.49, 406.96, 0.000, 0.000, 0.000, 20:50:54.826, 1582471254826
90, 947.42, 596.27, 711.75, 329.70, 0.000, 0.000, 0.000, 20:50:54.826, 1582471254826
91, 987.22, 608.15, 741.58, 308.44, 0.000, 0.000, 0.000, 20:50:54.842, 1582471254842
92, 966.56, 638.48, 751.36, 390.54, 0.000, 0.000, 0.000, 20:50:54.842, 1582471254842
93, 969.65, 624.33, 726.67, 393.56, 0.000, 0.000, 0.000, 20:50:54.842, 1582471254842
94, 979.61, 610.38, 740.20, 336.86, 0.000, 0.000, 0.000, 20:50:54.842, 1582471254842
95, 982.35, 605.24, 748.26, 310.84, 0.000, 0.000, 0.000, 20:50:54.856, 1582471254856
96, 975.38, 633.98, 756.22, 388.74, 0.000, 0.000, 0.000, 20:50:54.856, 1582471254856
97, 924.41, 588.05, 695.21, 365.68, 0.000, 0.000, 0.000, 20:50:54.872, 1582471254872
98, 958.55, 591.35, 712.15, 320.43, 0.000, 0.000, 0.000, 20:50:54.872, 1582471254872
99, 992.13, 596.86, 759.84, 305.54, 0.000, 0.000, 0.000, 20:50:54.872, 1582471254872
100, 959.06, 623.40, 726.39, 376.74, 0.000, 0.000, 0.000, 20:50:54.872, 1582471254872
101, 944.84, 606.48, 721.39, 380.69, 0.000, 0.000, 0.000, 20:50:54.886, 1582471254886
102, 930.11, 563.61, 671.77, 299.00, 0.000, 0.000, 0.000, 20:50:54.886, 1582471254886
103, 952.54, 569.92, 700.04, 277.34, 0.000, 0.000, 0.000, 20:50:54.902, 1582471254902
104, 976.42, 638.31, 742.16, 382.02, 0.000, 0.000, 0.000, 20:50:54.902, 1582471254902
105, 933.36, 596.28, 695.03, 381.21, 0.000, 0.000, 0.000, 20:50:54.902, 1582471254902
106, 949.15, 574.63, 709.66, 312.32, 0.000, 0.000, 0.000, 20:50:54.902, 1582471254902
107, 952.46, 570.72, 707.98, 285.41, 0.000, 0.000, 0.000, 20:50:54.916, 1582471254916
108, 975.92, 631.09, 734.05, 368.01, 0.000, 0.000, 0.000, 20:50:54.916, 1582471254916
109, 982.25, 626.32, 744.88, 390.50, 0.000, 0.000, 0.000, 20:50:54.932, 1582471254932
110, 966.61, 592.34, 725.02, 328.73, 0.000, 0.000, 0.000, 20:50:54.932, 1582471254932
111, 985.95, 590.96, 749.63, 307.32, 0.000, 0.000, 0.000, 20:50:54.932, 1582471254932
112, 991.14, 651.93, 728.05, 386.75, 0.000, 0.000, 0.000, 20:50:54.932, 1582471254932
113, 937.54, 593.66, 708.28, 381.19, 0.000, 0.000, 0.000, 20:50:54.946, 1582471254946
114, 921.83, 551.15, 671.85, 294.54, 0.000, 0.000, 0.000, 20:50:54.946, 1582471254946
115, 986.31, 575.63, 738.59, 293.16, 0.000, 0.000, 0.000, 20:50:54.962, 1582471254962
116, 993.28, 644.56, 747.82, 393.02, 0.000, 0.000, 0.000, 20:50:54.962, 1582471254962
117, 944.10, 602.77, 684.93, 376.93, 0.000, 0.000, 0.000, 20:50:54.962, 1582471254962
118, 955.82, 583.56, 702.80, 326.70, 0.000, 0.000, 0.000, 20:50:54.962, 1582471254962
119, 968.11, 578.27, 728.08, 295.62, 0.000, 0.000, 0.000, 20:50:54.976, 1582471254976
120, 977.62, 627.42, 728.30, 379.87, 0.000, 0.000, 0.000, 20:50:54.976, 1582471254976
121, 972.55, 622.78, 703.70, 389.37, 0.000, 0.000, 0.000, 20:50:54.992, 1582471254992
122, 977.12, 597.90, 717.84, 337.11, 0.000, 0.000, 0.000, 20:50:54.992, 1582471254992
123, 969.85, 570.78, 719.25, 284.44, 0.000, 0.000, 0.000, 20:50:54.992, 1582471254992
124, 955.99, 606.66, 714.81, 365.79, 0.000, 0.000, 0.000, 20:50:54.992, 1582471254992
125, 1010.44, 638.72, 762.03, 418.10, 0.000, 0.000, 0.000, 20:50:55.006, 1582471255006
126, 985.45, 604.61, 705.18, 335.53, 0.000, 0.000, 0.000, 20:50:55.006, 1582471255006
127, 961.52, 568.00, 713.01, 287.67, 0.000, 0.000, 0.000, 20:50:55.022, 1582471255022
128, 989.54, 632.65, 734.40, 380.72, 0.000, 0.000, 0.000, 20:50:55.022, 1582471255022
129, 1018.11, 644.41, 792.68, 426.13, 0.000, 0.000, 0.000, 20:50:55.022, 1582471255022
130, 957.40, 581.90, 693.21, 327.23, 0.000, 0.000, 0.000, 20:50:55.022, 1582471255022
131, 966.62, 575.33, 688.14, 288.45, 0.000, 0.000, 0.000, 20:50:55.036, 1582471255036
132, 999.25, 631.59, 732.34, 374.65, 0.000, 0.000, 0.000, 20:50:55.036, 1582471255036
133, 999.62, 635.77, 739.85, 410.88, 0.000, 0.000, 0.000, 20:50:55.051, 1582471255051
134, 1009.34, 615.52, 712.50, 350.84, 0.000, 0.000, 0.000, 20:50:55.051, 1582471255051
135, 1033.42, 609.76, 771.70, 324.57, 0.000, 0.000, 0.000, 20:50:55.052, 1582471255052
136, 1025.68, 653.08, 758.32, 401.89, 0.000, 0.000, 0.000, 20:50:55.052, 1582471255052
137, 971.17, 625.74, 711.80, 406.54, 0.000, 0.000, 0.000, 20:50:55.066, 1582471255066
138, 965.25, 579.90, 688.27, 318.07, 0.000, 0.000, 0.000, 20:50:55.066, 1582471255066
139, 978.57, 578.58, 698.35, 294.56, 0.000, 0.000, 0.000, 20:50:55.082, 1582471255082
140, 1006.37, 635.85, 757.64, 390.56, 0.000, 0.000, 0.000, 20:50:55.082, 1582471255082
141, 1002.58, 634.61, 753.26, 413.21, 0.000, 0.000, 0.000, 20:50:55.082, 1582471255082
142, 953.76, 579.82, 668.81, 327.09, 0.000, 0.000, 0.000, 20:50:55.082, 1582471255082
143, 1000.07, 596.89, 712.71, 318.08, 0.000, 0.000, 0.000, 20:50:55.096, 1582471255096
144, 979.52, 619.45, 707.41, 362.36, 0.000, 0.000, 0.000, 20:50:55.096, 1582471255096
145, 967.70, 605.45, 707.54, 387.13, 0.000, 0.000, 0.000, 20:50:55.111, 1582471255111
146, 1023.25, 614.05, 765.75, 357.10, 0.000, 0.000, 0.000, 20:50:55.111, 1582471255111
147, 1029.94, 608.90, 736.75, 320.92, 0.000, 0.000, 0.000, 20:50:55.112, 1582471255112
148, 991.52, 633.75, 695.49, 364.67, 0.000, 0.000, 0.000, 20:50:55.112, 1582471255112
149, 970.59, 611.76, 725.30, 402.86, 0.000, 0.000, 0.000, 20:50:55.126, 1582471255126
150, 971.26, 577.66, 698.83, 316.85, 0.000, 0.000, 0.000, 20:50:55.126, 1582471255126
151, 968.20, 572.47, 677.56, 283.37, 0.000, 0.000, 0.000, 20:50:55.141, 1582471255141
152, 1006.93, 634.08, 723.05, 374.97, 0.000, 0.000, 0.000, 20:50:55.141, 1582471255141
153, 1002.10, 630.29, 727.34, 407.00, 0.000, 0.000, 0.000, 20:50:55.142, 1582471255142
154, 984.97, 592.43, 697.50, 333.10, 0.000, 0.000, 0.000, 20:50:55.142, 1582471255142
155, 1023.75, 609.18, 735.60, 324.64, 0.000, 0.000, 0.000, 20:50:55.156, 1582471255156
156, 995.30, 612.29, 723.30, 364.18, 0.000, 0.000, 0.000, 20:50:55.156, 1582471255156
157, 966.73, 605.48, 682.09, 391.12, 0.000, 0.000, 0.000, 20:50:55.171, 1582471255171
158, 988.83, 606.18, 681.94, 338.49, 0.000, 0.000, 0.000, 20:50:55.171, 1582471255171
159, 1004.75, 584.11, 711.89, 309.61, 0.000, 0.000, 0.000, 20:50:55.172, 1582471255172
160, 1003.16, 622.58, 732.60, 369.35, 0.000, 0.000, 0.000, 20:50:55.172, 1582471255172
161, 928.74, 581.84, 663.48, 375.43, 0.000, 0.000, 0.000, 20:50:55.186, 1582471255186
162, 964.72, 566.64, 667.38, 310.73, 0.000, 0.000, 0.000, 20:50:55.186, 1582471255186
163, 1002.57, 577.87, 710.75, 294.38, 0.000, 0.000, 0.000, 20:50:55.202, 1582471255202
164, 1023.80, 640.90, 724.63, 382.02, 0.000, 0.000, 0.000, 20:50:55.202, 1582471255202
165, 937.49, 583.44, 682.06, 379.98, 0.000, 0.000, 0.000, 20:50:55.202, 1582471255202
166, 963.78, 564.45, 677.63, 321.22, 0.000, 0.000, 0.000, 20:50:55.202, 1582471255202
167, 1002.66, 594.54, 702.55, 314.38, 0.000, 0.000, 0.000, 20:50:55.216, 1582471255216
168, 1006.32, 622.67, 701.72, 360.32, 0.000, 0.000, 0.000, 20:50:55.216, 1582471255216
169, 972.75, 609.17, 686.63, 393.55, 0.000, 0.000, 0.000, 20:50:55.232, 1582471255232
170, 955.02, 559.40, 682.05, 317.76, 0.000, 0.000, 0.000, 20:50:55.232, 1582471255232
171, 993.51, 576.51, 694.51, 291.00, 0.000, 0.000, 0.000, 20:50:55.232, 1582471255232
172, 998.11, 616.51, 700.17, 356.67, 0.000, 0.000, 0.000, 20:50:55.232, 1582471255232
173, 962.87, 605.38, 686.17, 388.09, 0.000, 0.000, 0.000, 20:50:55.246, 1582471255246
174, 975.01, 564.92, 682.46, 311.77, 0.000, 0.000, 0.000, 20:50:55.246, 1582471255246
175, 979.83, 565.39, 692.52, 288.58, 0.000, 0.000, 0.000, 20:50:55.261, 1582471255261
176, 995.73, 614.79, 703.32, 356.22, 0.000, 0.000, 0.000, 20:50:55.261, 1582471255261
177, 941.05, 582.21, 669.62, 376.39, 0.000, 0.000, 0.000, 20:50:55.262, 1582471255262
178, 979.61, 571.25, 701.01, 341.71, 0.000, 0.000, 0.000, 20:50:55.262, 1582471255262
179, 998.97, 578.61, 687.92, 307.81, 0.000, 0.000, 0.000, 20:50:55.276, 1582471255276
180, 1011.36, 610.11, 722.15, 350.58, 0.000, 0.000, 0.000, 20:50:55.276, 1582471255276
181, 996.72, 615.91, 722.99, 405.12, 0.000, 0.000, 0.000, 20:50:55.291, 1582471255291
182, 1019.08, 608.85, 720.44, 353.07, 0.000, 0.000, 0.000, 20:50:55.291, 1582471255291
183, 988.33, 570.54, 678.06, 285.89, 0.000, 0.000, 0.000, 20:50:55.292, 1582471255292
184, 967.73, 590.93, 686.04, 333.04, 0.000, 0.000, 0.000, 20:50:55.292, 1582471255292
185, 951.91, 588.90, 673.15, 378.04, 0.000, 0.000, 0.000, 20:50:55.306, 1582471255306
186, 952.54, 548.38, 657.34, 302.66, 0.000, 0.000, 0.000, 20:50:55.306, 1582471255306
187, 988.23, 571.27, 710.90, 290.29, 0.000, 0.000, 0.000, 20:50:55.322, 1582471255322
188, 994.50, 605.24, 691.41, 341.98, 0.000, 0.000, 0.000, 20:50:55.322, 1582471255322
189, 975.98, 606.78, 693.20, 395.02, 0.000, 0.000, 0.000, 20:50:55.322, 1582471255322
190, 960.44, 563.59, 663.18, 309.37, 0.000, 0.000, 0.000, 20:50:55.322, 1582471255322
191, 986.58, 567.14, 705.86, 298.62, 0.000, 0.000, 0.000, 20:50:55.352, 1582471255352
192, 982.50, 588.16, 698.98, 326.38, 0.000, 0.000, 0.000, 20:50:55.352, 1582471255352
193, 951.46, 589.63, 656.85, 370.18, 0.000, 0.000, 0.000, 20:50:55.353, 1582471255353
194, 948.96, 557.10, 652.90, 302.39, 0.000, 0.000, 0.000, 20:50:55.353, 1582471255353
195, 957.53, 545.72, 671.99, 269.96, 0.000, 0.000, 0.000, 20:50:55.354, 1582471255354
196, 988.07, 598.62, 692.16, 336.53, 0.000, 0.000, 0.000, 20:50:55.354, 1582471255354
197, 990.83, 616.25, 724.38, 403.96, 0.000, 0.000, 0.000, 20:50:55.366, 1582471255366
198, 943.11, 538.73, 656.16, 292.85, 0.000, 0.000, 0.000, 20:50:55.366, 1582471255366
199, 993.67, 568.70, 697.18, 288.30, 0.000, 0.000, 0.000, 20:50:55.382, 1582471255382
200, 975.97, 584.85, 704.83, 331.26, 0.000, 0.000, 0.000, 20:50:55.382, 1582471255382
0, 980.03, 608.79, 685.47, 384.76, 0.000, 0.000, 0.000, 20:50:55.382, 1582471255382
1, 998.29, 585.15, 716.75, 332.68, 0.000, 0.000, 0.000, 20:50:55.397, 1582471255397
2, 992.83, 573.30, 702.06, 306.42, 0.000, 0.000, 0.000, 20:50:55.397, 1582471255397
3, 1006.61, 602.06, 727.03, 344.96, 0.000, 0.000, 0.000, 20:50:55.398, 1582471255398
4, 982.60, 608.56, 702.96, 393.50, 0.000, 0.000, 0.000, 20:50:55.398, 1582471255398
5, 993.35, 597.19, 693.61, 341.97, 0.000, 0.000, 0.000, 20:50:55.411, 1582471255411
6, 998.30, 570.32, 708.86, 286.25, 0.000, 0.000, 0.000, 20:50:55.411, 1582471255411
7, 996.41, 609.84, 700.73, 336.69, 0.000, 0.000, 0.000, 20:50:55.427, 1582471255427
8, 979.82, 606.73, 695.56, 385.91, 0.000, 0.000, 0.000, 20:50:55.427, 1582471255427
9, 968.61, 550.86, 692.59, 309.78, 0.000, 0.000, 0.000, 20:50:55.427, 1582471255427
10, 1008.50, 568.14, 703.06, 290.96, 0.000, 0.000, 0.000, 20:50:55.427, 1582471255427
11, 1029.10, 624.93, 744.21, 351.17, 0.000, 0.000, 0.000, 20:50:55.442, 1582471255442
12, 982.48, 601.75, 695.30, 384.01, 0.000, 0.000, 0.000, 20:50:55.442, 1582471255442
13, 963.28, 562.89, 660.42, 313.07, 0.000, 0.000, 0.000, 20:50:55.456, 1582471255456
14, 990.33, 575.04, 698.48, 299.36, 0.000, 0.000, 0.000, 20:50:55.456, 1582471255456
15, 997.70, 597.34, 706.52, 336.49, 0.000, 0.000, 0.000, 20:50:55.457, 1582471255457
16, 1017.68, 629.47, 735.60, 414.29, 0.000, 0.000, 0.000, 20:50:55.457, 1582471255457
17, 1035.41, 609.72, 754.67, 361.32, 0.000, 0.000, 0.000, 20:50:55.471, 1582471255471
18, 955.56, 540.71, 644.76, 267.69, 0.000, 0.000, 0.000, 20:50:55.471, 1582471255471
19, 1001.93, 605.01, 696.48, 324.75, 0.000, 0.000, 0.000, 20:50:55.502, 1582471255502
20, 981.29, 595.33, 711.73, 389.71, 0.000, 0.000, 0.000, 20:50:55.502, 1582471255502
21, 1010.29, 570.04, 762.84, 335.62, 0.000, 0.000, 0.000, 20:50:55.503, 1582471255503
22, 980.88, 552.71, 677.79, 280.01, 0.000, 0.000, 0.000, 20:50:55.503, 1582471255503
23, 1013.93, 612.53, 722.02, 339.34, 0.000, 0.000, 0.000, 20:50:55.504, 1582471255504
24, 990.31, 605.76, 705.01, 380.92, 0.000, 0.000, 0.000, 20:50:55.504, 1582471255504
25, 987.44, 569.10, 686.67, 319.13, 0.000, 0.000, 0.000, 20:50:55.517, 1582471255517
26, 977.26, 564.09, 693.40, 290.13, 0.000, 0.000, 0.000, 20:50:55.517, 1582471255517
27, 997.12, 582.78, 705.38, 313.35, 0.000, 0.000, 0.000, 20:50:55.517, 1582471255517
28, 973.86, 594.62, 683.01, 381.66, 0.000, 0.000, 0.000, 20:50:55.517, 1582471255517
29, 999.02, 578.76, 707.15, 331.82, 0.000, 0.000, 0.000, 20:50:55.531, 1582471255531
30, 1016.90, 582.90, 712.39, 294.84, 0.000, 0.000, 0.000, 20:50:55.531, 1582471255531
31, 1007.87, 593.45, 732.15, 325.87, 0.000, 0.000, 0.000, 20:50:55.547, 1582471255547
32, 1006.24, 615.65, 727.37, 397.71, 0.000, 0.000, 0.000, 20:50:55.547, 1582471255547
33, 1036.32, 593.18, 763.04, 333.24, 0.000, 0.000, 0.000, 20:50:55.547, 1582471255547
34, 1004.61, 576.55, 700.13, 292.47, 0.000, 0.000, 0.000, 20:50:55.547, 1582471255547
35, 1025.95, 615.78, 730.04, 347.98, 0.000, 0.000, 0.000, 20:50:55.561, 1582471255561
36, 1014.19, 615.11, 722.14, 386.31, 0.000, 0.000, 0.000, 20:50:55.561, 1582471255561
37, 975.43, 565.12, 668.93, 313.20, 0.000, 0.000, 0.000, 20:50:55.577, 1582471255577
38, 1002.87, 563.24, 702.33, 288.91, 0.000, 0.000, 0.000, 20:50:55.577, 1582471255577
39, 1018.06, 594.81, 716.50, 312.58, 0.000, 0.000, 0.000, 20:50:55.577, 1582471255577
40, 947.43, 563.40, 690.13, 357.33, 0.000, 0.000, 0.000, 20:50:55.577, 1582471255577
41, 937.37, 528.00, 631.16, 275.77, 0.000, 0.000, 0.000, 20:50:55.591, 1582471255591
42, 922.61, 494.30, 610.10, 208.81, 0.000, 0.000, 0.000, 20:50:55.591, 1582471255591
43, 940.62, 521.00, 655.55, 256.64, 0.000, 0.000, 0.000, 20:50:55.607, 1582471255607
44, 883.26, 507.46, 596.87, 291.47, 0.000, 0.000, 0.000, 20:50:55.607, 1582471255607
45, 876.51, 464.27, 574.36, 216.59, 0.000, 0.000, 0.000, 20:50:55.607, 1582471255607
46, 845.70, 431.12, 537.95, 156.24, 0.000, 0.000, 0.000, 20:50:55.607, 1582471255607
47, 850.64, 453.91, 540.18, 180.61, 0.000, 0.000, 0.000, 20:50:55.621, 1582471255621
48, 765.26, 385.21, 492.07, 175.52, 0.000, 0.000, 0.000, 20:50:55.621, 1582471255621
49, 733.56, 334.20, 450.30, 98.02, 0.000, 0.000, 0.000, 20:50:55.652, 1582471255652
50, 697.64, 294.23, 389.35, 30.20, 0.000, 0.000, 0.000, 20:50:55.652, 1582471255652
51, 678.01, 296.31, 409.32, 38.51, 0.000, 0.000, 0.000, 20:50:55.653, 1582471255653
52, 627.84, 279.59, 348.41, 79.87, 0.000, 0.000, 0.000, 20:50:55.653, 1582471255653
53, 634.73, 258.86, 324.94, 24.24, 0.000, 0.000, 0.000, 20:50:55.654, 1582471255654
54, 635.85, 243.60, 349.37, -6.50, 0.000, 0.000, 0.000, 20:50:55.654, 1582471255654
55, 658.18, 279.97, 365.62, 24.55, 0.000, 0.000, 0.000, 20:50:55.666, 1582471255666
56, 610.68, 278.45, 330.84, 79.66, 0.000, 0.000, 0.000, 20:50:55.666, 1582471255666
57, 644.41, 254.88, 355.37, 18.50, 0.000, 0.000, 0.000, 20:50:55.667, 1582471255667
58, 649.49, 257.40, 354.01, -3.45, 0.000, 0.000, 0.000, 20:50:55.667, 1582471255667
59, 676.34, 304.24, 387.78, 42.23, 0.000, 0.000, 0.000, 20:50:55.681, 1582471255681
60, 672.89, 321.03, 378.97, 109.16, 0.000, 0.000, 0.000, 20:50:55.681, 1582471255681
61, 674.55, 295.87, 393.29, 51.78, 0.000, 0.000, 0.000, 20:50:55.697, 1582471255697
62, 748.93, 342.73, 472.62, 84.01, 0.000, 0.000, 0.000, 20:50:55.697, 1582471255697
63, 721.68, 355.99, 419.12, 86.39, 0.000, 0.000, 0.000, 20:50:55.697, 1582471255697
64, 730.66, 394.74, 428.10, 165.31, 0.000, 0.000, 0.000, 20:50:55.697, 1582471255697
65, 704.71, 335.78, 424.33, 102.32, 0.000, 0.000, 0.000, 20:50:55.711, 1582471255711
66, 779.54, 383.77, 478.02, 102.51, 0.000, 0.000, 0.000, 20:50:55.711, 1582471255711
67, 799.12, 417.50, 510.85, 140.84, 0.000, 0.000, 0.000, 20:50:55.727, 1582471255727
68, 754.93, 425.26, 479.46, 211.09, 0.000, 0.000, 0.000, 20:50:55.727, 1582471255727
69, 790.50, 411.76, 494.51, 159.18, 0.000, 0.000, 0.000, 20:50:55.727, 1582471255727
70, 819.14, 423.68, 532.28, 145.33, 0.000, 0.000, 0.000, 20:50:55.727, 1582471255727
71, 855.20, 480.04, 547.95, 202.93, 0.000, 0.000, 0.000, 20:50:55.741, 1582471255741
72, 790.96, 457.43, 511.96, 227.14, 0.000, 0.000, 0.000, 20:50:55.741, 1582471255741
73, 841.41, 453.03, 574.77, 205.46, 0.000, 0.000, 0.000, 20:50:55.757, 1582471255757
74, 881.51, 484.18, 576.79, 197.29, 0.000, 0.000, 0.000, 20:50:55.757, 1582471255757
75, 877.43, 510.37, 581.47, 216.91, 0.000, 0.000, 0.000, 20:50:55.757, 1582471255757
76, 853.10, 515.52, 571.76, 283.25, 0.000, 0.000, 0.000, 20:50:55.757, 1582471255757
77, 877.06, 496.84, 593.47, 238.31, 0.000, 0.000, 0.000, 20:50:55.771, 1582471255771
78, 884.20, 497.35, 581.15, 214.53, 0.000, 0.000, 0.000, 20:50:55.771, 1582471255771
79, 903.98, 532.24, 617.76, 250.87, 0.000, 0.000, 0.000, 20:50:55.787, 1582471255787
80, 912.94, 572.20, 625.65, 330.43, 0.000, 0.000, 0.000, 20:50:55.787, 1582471255787
81, 951.87, 556.09, 669.80, 289.34, 0.000, 0.000, 0.000, 20:50:55.787, 1582471255787
82, 927.06, 548.62, 644.09, 259.25, 0.000, 0.000, 0.000, 20:50:55.787, 1582471255787
83, 944.65, 579.71, 661.35, 292.22, 0.000, 0.000, 0.000, 20:50:55.801, 1582471255801
84, 973.68, 622.39, 697.79, 383.81, 0.000, 0.000, 0.000, 20:50:55.801, 1582471255801
85, 987.58, 603.99, 711.48, 332.73, 0.000, 0.000, 0.000, 20:50:55.816, 1582471255816
86, 966.92, 585.14, 664.28, 294.04, 0.000, 0.000, 0.000, 20:50:55.816, 1582471255816
87, 978.18, 605.30, 684.07, 305.16, 0.000, 0.000, 0.000, 20:50:55.817, 1582471255817
88, 981.72, 638.96, 712.05, 402.53, 0.000, 0.000, 0.000, 20:50:55.817, 1582471255817
89, 959.74, 594.36, 683.41, 331.04, 0.000, 0.000, 0.000, 20:50:55.831, 1582471255831
90, 978.13, 596.40, 691.61, 294.89, 0.000, 0.000, 0.000, 20:50:55.831, 1582471255831
91, 1012.95, 629.53, 720.38, 323.70, 0.000, 0.000, 0.000, 20:50:55.847, 1582471255847
92, 984.37, 643.57, 713.32, 404.96, 0.000, 0.000, 0.000, 20:50:55.847, 1582471255847
93, 994.06, 611.81, 720.63, 343.23, 0.000, 0.000, 0.000, 20:50:55.847, 1582471255847
94, 1021.25, 621.65, 739.45, 321.74, 0.000, 0.000, 0.000, 20:50:55.847, 1582471255847
95, 1025.18, 647.12, 765.15, 348.44, 0.000, 0.000, 0.000, 20:50:55.861, 1582471255861
96, 972.44, 650.56, 681.64, 393.82, 0.000, 0.000, 0.000, 20:50:55.861, 1582471255861
97, 1033.10, 637.77, 764.43, 375.09, 0.000, 0.000, 0.000, 20:50:55.877, 1582471255877
98, 991.56, 623.87, 705.84, 321.18, 0.000, 0.000, 0.000, 20:50:55.877, 1582471255877
99, 1017.22, 650.67, 745.84, 345.57, 0.000, 0.000, 0.000, 20:50:55.877, 1582471255877
100, 988.29, 662.05, 728.25, 415.42, 0.000, 0.000, 0.000, 20:50:55.877, 1582471255877
101, 1001.44, 633.56, 735.39, 374.09, 0.000, 0.000, 0.000, 20:50:55.891, 1582471255891
102, 1025.57, 635.89, 736.33, 333.79, 0.000, 0.000, 0.000, 20:50:55.891, 1582471255891
103, 1030.32, 669.21, 749.31, 352.16, 0.000, 0.000, 0.000, 20:50:55.907, 1582471255907
104, 987.59, 658.88, 739.89, 422.11, 0.000, 0.000, 0.000, 20:50:55.907, 1582471255907
105, 993.32, 623.44, 727.64, 349.24, 0.000, 0.000, 0.000, 20:50:55.907, 1582471255907
106, 1000.54, 625.53, 727.56, 325.66, 0.000, 0.000, 0.000, 20:50:55.907, 1582471255907
107, 1057.32, 678.93, 786.88, 373.13, 0.000, 0.000, 0.000, 20:50:55.921, 1582471255921
108, 998.71, 665.29, 756.44, 417.93, 0.000, 0.000, 0.000, 20:50:55.921, 1582471255921
109, 979.34, 624.90, 714.97, 350.74, 0.000, 0.000, 0.000, 20:50:55.937, 1582471255937
110, 1014.33, 644.01, 757.86, 346.65, 0.000, 0.000, 0.000, 20:50:55.937, 1582471255937
111, 1063.56, 682.39, 816.30, 374.96, 0.000, 0.000, 0.000, 20:50:55.937, 1582471255937
112, 976.83, 670.42, 706.52, 421.24, 0.000, 0.000, 0.000, 20:50:55.937, 1582471255937
113, 992.06, 642.23, 733.63, 372.46, 0.000, 0.000, 0.000, 20:50:55.967, 1582471255967
114, 1032.58, 653.37, 780.45, 355.27, 0.000, 0.000, 0.000, 20:50:55.967, 1582471255967
115, 1038.85, 676.02, 768.25, 364.29, 0.000, 0.000, 0.000, 20:50:55.968, 1582471255968
116, 1017.66, 683.62, 780.65, 440.88, 0.000, 0.000, 0.000, 20:50:55.968, 1582471255968
117, 999.89, 644.51, 742.56, 379.28, 0.000, 0.000, 0.000, 20:50:55.969, 1582471255969
118, 1009.28, 635.74, 745.85, 338.50, 0.000, 0.000, 0.000, 20:50:55.969, 1582471255969
119, 1028.70, 673.23, 771.97, 368.01, 0.000, 0.000, 0.000, 20:50:55.981, 1582471255981
120, 997.10, 670.89, 741.38, 423.43, 0.000, 0.000, 0.000, 20:50:55.981, 1582471255981
121, 1010.92, 652.69, 743.14, 373.69, 0.000, 0.000, 0.000, 20:50:55.996, 1582471255996
122, 1012.35, 645.44, 767.95, 353.14, 0.000, 0.000, 0.000, 20:50:55.996, 1582471255996
123, 1042.88, 668.30, 786.22, 354.53, 0.000, 0.000, 0.000, 20:50:55.997, 1582471255997
124, 1037.14, 706.22, 802.08, 450.25, 0.000, 0.000, 0.000, 20:50:55.997, 1582471255997
125, 991.92, 649.65, 732.69, 379.46, 0.000, 0.000, 0.000, 20:50:56.011, 1582471256011
126, 1011.01, 643.94, 765.80, 343.95, 0.000, 0.000, 0.000, 20:50:56.011, 1582471256011
127, 1016.30, 652.46, 777.26, 341.66, 0.000, 0.000, 0.000, 20:50:56.027, 1582471256027
128, 990.65, 674.43, 734.50, 422.28, 0.000, 0.000, 0.000, 20:50:56.027, 1582471256027
129, 1017.42, 655.52, 766.79, 384.41, 0.000, 0.000, 0.000, 20:50:56.027, 1582471256027
130, 995.21, 642.56, 739.43, 339.13, 0.000, 0.000, 0.000, 20:50:56.027, 1582471256027
131, 1040.03, 680.33, 787.60, 366.07, 0.000, 0.000, 0.000, 20:50:56.041, 1582471256041
132, 1006.61, 685.95, 777.50, 427.46, 0.000, 0.000, 0.000, 20:50:56.041, 1582471256041
133, 985.57, 635.04, 748.75, 363.63, 0.000, 0.000, 0.000, 20:50:56.057, 1582471256057
134, 1001.90, 649.71, 748.83, 343.89, 0.000, 0.000, 0.000, 20:50:56.057, 1582471256057
135, 1025.44, 665.04, 763.09, 352.67, 0.000, 0.000, 0.000, 20:50:56.057, 1582471256057
136, 1040.99, 712.28, 818.39, 457.29, 0.000, 0.000, 0.000, 20:50:56.057, 1582471256057
137, 989.90, 640.38, 736.49, 369.44, 0.000, 0.000, 0.000, 20:50:56.071, 1582471256071
138, 969.71, 611.99, 737.08, 315.00, 0.000, 0.000, 0.000, 20:50:56.071, 1582471256071
139, 1012.63, 657.13, 771.61, 334.65, 0.000, 0.000, 0.000, 20:50:56.087, 1582471256087
140, 972.14, 667.76, 755.98, 411.85, 0.000, 0.000, 0.000, 20:50:56.087, 1582471256087
141, 989.91, 639.59, 757.41, 362.97, 0.000, 0.000, 0.000, 20:50:56.087, 1582471256087
142, 1013.87, 650.41, 771.77, 346.78, 0.000, 0.000, 0.000, 20:50:56.087, 1582471256087
143, 1015.00, 663.73, 765.01, 346.64, 0.000, 0.000, 0.000, 20:50:56.101, 1582471256101
144, 977.86, 670.59, 747.40, 412.30, 0.000, 0.000, 0.000, 20:50:56.101, 1582471256101
145, 1025.98, 674.58, 779.31, 397.10, 0.000, 0.000, 0.000, 20:50:56.117, 1582471256117
146, 1001.03, 653.21, 762.68, 347.97, 0.000, 0.000, 0.000, 20:50:56.117, 1582471256117
147, 975.84, 625.69, 724.65, 300.48, 0.000, 0.000, 0.000, 20:50:56.117, 1582471256117
148, 993.51, 682.20, 769.41, 419.31, 0.000, 0.000, 0.000, 20:50:56.117, 1582471256117
149, 984.15, 632.00, 757.37, 359.60, 0.000, 0.000, 0.000, 20:50:56.131, 1582471256131
150, 1002.92, 641.11, 763.81, 331.47, 0.000, 0.000, 0.000, 20:50:56.131, 1582471256131
151, 1073.67, 684.35, 871.91, 364.68, 0.000, 0.000, 0.000, 20:50:56.147, 1582471256147
152, 997.02, 698.50, 763.97, 425.07, 0.000, 0.000, 0.000, 20:50:56.147, 1582471256147
153, 954.25, 620.06, 712.63, 349.99, 0.000, 0.000, 0.000, 20:50:56.148, 1582471256148
154, 1007.33, 653.45, 768.41, 353.40, 0.000, 0.000, 0.000, 20:50:56.148, 1582471256148
155, 1093.37, 719.81, 868.04, 393.28, 0.000, 0.000, 0.000, 20:50:56.161, 1582471256161
156, 1027.75, 722.33, 786.81, 444.53, 0.000, 0.000, 0.000, 20:50:56.161, 1582471256161
157, 1030.59, 690.39, 777.60, 401.41, 0.000, 0.000, 0.000, 20:50:56.177, 1582471256177
158, 1077.34, 714.53, 841.86, 399.70, 0.000, 0.000, 0.000, 20:50:56.177, 1582471256177
159, 1064.65, 706.19, 837.34, 381.54, 0.000, 0.000, 0.000, 20:50:56.177, 1582471256177
160, 1097.23, 771.53, 873.82, 500.74, 0.000, 0.000, 0.000, 20:50:56.177, 1582471256177
161, 1075.26, 717.77, 850.48, 442.85, 0.000, 0.000, 0.000, 20:50:56.191, 1582471256191
162, 1057.20, 692.47, 807.74, 375.64, 0.000, 0.000, 0.000, 20:50:56.191, 1582471256191
163, 1065.96, 709.64, 830.45, 383.81, 0.000, 0.000, 0.000, 20:50:56.207, 1582471256207
164, 1052.70, 733.82, 846.92, 475.90, 0.000, 0.000, 0.000, 20:50:56.207, 1582471256207
165, 1082.68, 713.15, 871.48, 432.98, 0.000, 0.000, 0.000, 20:50:56.207, 1582471256207
166, 1051.62, 701.22, 803.88, 388.41, 0.000, 0.000, 0.000, 20:50:56.207, 1582471256207
167, 1067.81, 716.97, 834.29, 395.25, 0.000, 0.000, 0.000, 20:50:56.221, 1582471256221
168, 1066.59, 749.21, 850.25, 477.03, 0.000, 0.000, 0.000, 20:50:56.221, 1582471256221
169, 1058.39, 706.99, 826.94, 419.71, 0.000, 0.000, 0.000, 20:50:56.237, 1582471256237
170, 1059.39, 697.32, 811.80, 385.93, 0.000, 0.000, 0.000, 20:50:56.237, 1582471256237
171, 1077.34, 710.80, 851.44, 386.30, 0.000, 0.000, 0.000, 20:50:56.237, 1582471256237
172, 1049.00, 732.14, 828.51, 461.29, 0.000, 0.000, 0.000, 20:50:56.237, 1582471256237
173, 1049.29, 705.38, 830.08, 420.84, 0.000, 0.000, 0.000, 20:50:56.251, 1582471256251
174, 1075.34, 713.06, 845.05, 389.68, 0.000, 0.000, 0.000, 20:50:56.251, 1582471256251
175, 1111.25, 738.82, 892.93, 400.98, 0.000, 0.000, 0.000, 20:50:56.267, 1582471256267
176, 1053.15, 741.19, 836.77, 466.76, 0.000, 0.000, 0.000, 20:50:56.267, 1582471256267
177, 1063.77, 708.58, 830.05, 411.79, 0.000, 0.000, 0.000, 20:50:56.267, 1582471256267
178, 1022.28, 660.72, 811.46, 357.90, 0.000, 0.000, 0.000, 20:50:56.267, 1582471256267
179, 1060.55, 692.79, 834.57, 371.56, 0.000, 0.000, 0.000, 20:50:56.281, 1582471256281
180, 1050.16, 715.74, 851.77, 448.41, 0.000, 0.000, 0.000, 20:50:56.281, 1582471256281
181, 1044.07, 687.40, 822.67, 399.14, 0.000, 0.000, 0.000, 20:50:56.297, 1582471256297
182, 1061.15, 687.89, 848.86, 384.76, 0.000, 0.000, 0.000, 20:50:56.297, 1582471256297
183, 1030.11, 666.81, 789.69, 335.65, 0.000, 0.000, 0.000, 20:50:56.297, 1582471256297
184, 1049.16, 728.75, 825.03, 446.88, 0.000, 0.000, 0.000, 20:50:56.297, 1582471256297
185, 1028.00, 684.76, 818.45, 402.63, 0.000, 0.000, 0.000, 20:50:56.311, 1582471256311
186, 1064.46, 691.36, 845.43, 373.77, 0.000, 0.000, 0.000, 20:50:56.311, 1582471256311
187, 1061.86, 697.09, 828.95, 362.81, 0.000, 0.000, 0.000, 20:50:56.327, 1582471256327
188, 1068.29, 740.03, 842.91, 455.89, 0.000, 0.000, 0.000, 20:50:56.327, 1582471256327
189, 1033.79, 679.31, 822.85, 396.00, 0.000, 0.000, 0.000, 20:50:56.327, 1582471256327
190, 1041.70, 679.99, 823.91, 369.67, 0.000, 0.000, 0.000, 20:50:56.327, 1582471256327
191, 1091.56, 719.29, 856.72, 389.70, 0.000, 0.000, 0.000, 20:50:56.341, 1582471256341
192, 1102.88, 758.67, 889.46, 485.04, 0.000, 0.000, 0.000, 20:50:56.341, 1582471256341
193, 1046.82, 685.33, 840.81, 413.31, 0.000, 0.000, 0.000, 20:50:56.357, 1582471256357
194, 1065.05, 698.12, 840.30, 379.67, 0.000, 0.000, 0.000, 20:50:56.357, 1582471256357
195, 1064.92, 690.61, 850.34, 367.13, 0.000, 0.000, 0.000, 20:50:56.357, 1582471256357
196, 1061.20, 728.36, 850.49, 459.93, 0.000, 0.000, 0.000, 20:50:56.357, 1582471256357
197, 1091.12, 716.66, 881.99, 433.06, 0.000, 0.000, 0.000, 20:50:56.371, 1582471256371
198, 1055.06, 686.08, 835.86, 379.59, 0.000, 0.000, 0.000, 20:50:56.371, 1582471256371
199, 1056.76, 698.88, 812.16, 365.60, 0.000, 0.000, 0.000, 20:50:56.387, 1582471256387
200, 1044.75, 727.33, 825.54, 441.24, 0.000, 0.000, 0.000, 20:50:56.387, 1582471256387
0, 1047.63, 692.34, 816.97, 396.02, 0.000, 0.000, 0.000, 20:50:56.387, 1582471256387
1, 1034.91, 673.65, 807.54, 356.62, 0.000, 0.000, 0.000, 20:50:56.402, 1582471256402
2, 1052.13, 692.07, 840.77, 361.11, 0.000, 0.000, 0.000, 20:50:56.402, 1582471256402
3, 1047.28, 722.06, 847.51, 438.42, 0.000, 0.000, 0.000, 20:50:56.402, 1582471256402
4, 1009.74, 661.47, 801.83, 371.04, 0.000, 0.000, 0.000, 20:50:56.402, 1582471256402
5, 1044.03, 682.20, 817.69, 362.82, 0.000, 0.000, 0.000, 20:50:56.416, 1582471256416
6, 1044.10, 683.21, 819.64, 331.25, 0.000, 0.000, 0.000, 20:50:56.416, 1582471256416
7, 1053.96, 729.01, 845.86, 443.74, 0.000, 0.000, 0.000, 20:50:56.432, 1582471256432
8, 1031.87, 671.53, 830.57, 381.34, 0.000, 0.000, 0.000, 20:50:56.432, 1582471256432
9, 1025.57, 659.06, 804.97, 340.93, 0.000, 0.000, 0.000, 20:50:56.432, 1582471256432
10, 1029.06, 670.67, 811.93, 330.43, 0.000, 0.000, 0.000, 20:50:56.432, 1582471256432
11, 1043.79, 724.58, 828.10, 443.29, 0.000, 0.000, 0.000, 20:50:56.462, 1582471256462
12, 1026.23, 664.13, 811.84, 368.13, 0.000, 0.000, 0.000, 20:50:56.462, 1582471256462
13, 1032.27, 664.83, 817.14, 341.69, 0.000, 0.000, 0.000, 20:50:56.463, 1582471256463
14, 1042.38, 678.26, 829.92, 334.52, 0.000, 0.000, 0.000, 20:50:56.463, 1582471256463
15, 1006.25, 703.58, 803.36, 423.74, 0.000, 0.000, 0.000, 20:50:56.464, 1582471256464
16, 1012.38, 652.15, 798.72, 368.62, 0.000, 0.000, 0.000, 20:50:56.464, 1582471256464
17, 1064.47, 702.35, 841.83, 370.95, 0.000, 0.000, 0.000, 20:50:56.476, 1582471256476
18, 1066.08, 698.34, 849.00, 351.22, 0.000, 0.000, 0.000, 20:50:56.476, 1582471256476
19, 1051.58, 735.36, 860.32, 471.94, 0.000, 0.000, 0.000, 20:50:56.492, 1582471256492
20, 1040.01, 679.12, 825.78, 398.01, 0.000, 0.000, 0.000, 20:50:56.492, 1582471256492
21, 1037.45, 661.96, 819.28, 333.33, 0.000, 0.000, 0.000, 20:50:56.492, 1582471256492
22, 1038.16, 672.24, 816.70, 340.49, 0.000, 0.000, 0.000, 20:50:56.492, 1582471256492
23, 1039.55, 717.70, 829.87, 451.33, 0.000, 0.000, 0.000, 20:50:56.523, 1582471256523
24, 997.54, 639.95, 789.56, 341.61, 0.000, 0.000, 0.000, 20:50:56.523, 1582471256523
25, 1008.78, 642.38, 787.61, 328.23, 0.000, 0.000, 0.000, 20:50:56.523, 1582471256523
26, 1042.48, 669.87, 825.31, 336.14, 0.000, 0.000, 0.000, 20:50:56.523, 1582471256523
27, 1029.71, 706.67, 828.67, 428.73, 0.000, 0.000, 0.000, 20:50:56.524, 1582471256524
28, 1013.64, 642.32, 807.95, 344.10, 0.000, 0.000, 0.000, 20:50:56.524, 1582471256524
29, 1024.40, 654.16, 805.99, 330.59, 0.000, 0.000, 0.000, 20:50:56.536, 1582471256536
30, 1038.21, 660.31, 828.48, 319.64, 0.000, 0.000, 0.000, 20:50:56.536, 1582471256536
31, 1029.96, 706.71, 826.57, 432.70, 0.000, 0.000, 0.000, 20:50:56.552, 1582471256552
32, 1009.95, 635.76, 786.09, 340.29, 0.000, 0.000, 0.000, 20:50:56.552, 1582471256552
33, 995.91, 626.58, 766.41, 288.05, 0.000, 0.000, 0.000, 20:50:56.552, 1582471256552
34, 1027.89, 652.10, 822.30, 309.16, 0.000, 0.000, 0.000, 20:50:56.552, 1582471256552
35, 1020.99, 707.61, 824.51, 433.19, 0.000, 0.000, 0.000, 20:50:56.566, 1582471256566
36, 993.82, 575.95, 768.90, 256.41, 0.000, 0.000, 0.000, 20:50:56.566, 1582471256566
37, 1015.05, 589.36, 788.38, 237.97, 0.000, 0.000, 0.000, 20:50:56.582, 1582471256582
38, 1009.43, 645.18, 786.48, 299.71, 0.000, 0.000, 0.000, 20:50:56.582, 1582471256582
39, 1046.00, 798.65, 851.39, 567.91, 0.000, 0.000, 0.000, 20:50:56.582, 1582471256582
40, 1000.55, 595.16, 776.54, 285.28, 0.000, 0.000, 0.000, 20:50:56.582, 1582471256582
41, 1030.14, 599.09, 781.35, 227.65, 0.000, 0.000, 0.000, 20:50:56.612, 1582471256612
42, 1034.51, 665.81, 816.04, 312.49, 0.000, 0.000, 0.000, 20:50:56.612, 1582471256612
43, 1042.69, 774.81, 867.55, 557.68, 0.000, 0.000, 0.000, 20:50:56.613, 1582471256613
44, 998.08, 578.93, 796.36, 282.25, 0.000, 0.000, 0.000, 20:50:56.613, 1582471256613
45, 1020.70, 588.29, 772.81, 230.70, 0.000, 0.000, 0.000, 20:50:56.614, 1582471256614
46, 1045.66, 668.09, 821.05, 323.26, 0.000, 0.000, 0.000, 20:50:56.614, 1582471256614
47, 1011.62, 756.12, 852.49, 549.99, 0.000, 0.000, 0.000, 20:50:56.626, 1582471256626
48, 983.65, 563.22, 770.99, 261.75, 0.000, 0.000, 0.000, 20:50:56.626, 1582471256626
49, 982.33, 554.91, 761.15, 215.77, 0.000, 0.000, 0.000, 20:50:56.642, 1582471256642
50, 1004.58, 638.10, 769.76, 287.93, 0.000, 0.000, 0.000, 20:50:56.642, 1582471256642
51, 1022.91, 755.15, 839.31, 536.67, 0.000, 0.000, 0.000, 20:50:56.642, 1582471256642
52, 1003.21, 582.11, 801.56, 280.22, 0.000, 0.000, 0.000, 20:50:56.642, 1582471256642
53, 964.05, 556.92, 749.51, 213.26, 0.000, 0.000, 0.000, 20:50:56.656, 1582471256656
54, 1000.53, 628.10, 773.34, 281.03, 0.000, 0.000, 0.000, 20:50:56.656, 1582471256656
55, 1032.41, 763.41, 839.28, 532.54, 0.000, 0.000, 0.000, 20:50:56.672, 1582471256672
56, 1013.48, 593.11, 805.41, 295.56, 0.000, 0.000, 0.000, 20:50:56.672, 1582471256672
57, 1020.74, 597.34, 780.38, 239.65, 0.000, 0.000, 0.000, 20:50:56.672, 1582471256672
58, 998.73, 621.83, 788.14, 286.03, 0.000, 0.000, 0.000, 20:50:56.672, 1582471256672
59, 1021.63, 747.50, 838.39, 524.52, 0.000, 0.000, 0.000, 20:50:56.686, 1582471256686
60, 1014.35, 593.83, 801.56, 289.65, 0.000, 0.000, 0.000, 20:50:56.686, 1582471256686
61, 995.88, 572.36, 762.38, 226.85, 0.000, 0.000, 0.000, 20:50:56.702, 1582471256702
62, 1024.00, 641.67, 817.35, 305.89, 0.000, 0.000, 0.000, 20:50:56.702, 1582471256702
63, 1050.08, 770.39, 844.43, 536.86, 0.000, 0.000, 0.000, 20:50:56.702, 1582471256702
64, 988.47, 576.28, 765.77, 279.72, 0.000, 0.000, 0.000, 20:50:56.702, 1582471256702
65, 1005.16, 582.64, 776.47, 235.11, 0.000, 0.000, 0.000, 20:50:56.716, 1582471256716
66, 1047.49, 649.50, 841.17, 307.06, 0.000, 0.000, 0.000, 20:50:56.716, 1582471256716
67, 1048.26, 765.74, 861.38, 535.45, 0.000, 0.000, 0.000, 20:50:56.732, 1582471256732
68, 998.30, 586.30, 772.08, 286.30, 0.000, 0.000, 0.000, 20:50:56.732, 1582471256732
69, 1004.31, 582.17, 760.78, 233.04, 0.000, 0.000, 0.000, 20:50:56.732, 1582471256732
70, 1030.84, 641.16, 798.40, 299.00, 0.000, 0.000, 0.000, 20:50:56.732, 1582471256732
71, 1048.85, 767.18, 857.63, 543.25, 0.000, 0.000, 0.000, 20:50:56.746, 1582471256746
72, 1003.24, 587.77, 788.05, 302.01, 0.000, 0.000, 0.000, 20:50:56.746, 1582471256746
73, 995.03, 572.14, 762.41, 242.01, 0.000, 0.000, 0.000, 20:50:56.762, 1582471256762
74, 1029.01, 640.34, 801.40, 312.82, 0.000, 0.000, 0.000, 20:50:56.762, 1582471256762
75, 1072.85, 767.41, 876.16, 549.00, 0.000, 0.000, 0.000, 20:50:56.762, 1582471256762
76, 1029.95, 605.80, 810.73, 315.14, 0.000, 0.000, 0.000, 20:50:56.762, 1582471256762
77, 1008.33, 578.32, 765.11, 238.37, 0.000, 0.000, 0.000, 20:50:56.776, 1582471256776
78, 1036.38, 641.96, 791.79, 297.86, 0.000, 0.000, 0.000, 20:50:56.776, 1582471256776
79, 1102.45, 781.74, 895.74, 553.71, 0.000, 0.000, 0.000, 20:50:56.792, 1582471256792
80, 1049.73, 616.58, 808.44, 329.49, 0.000, 0.000, 0.000, 20:50:56.792, 1582471256792
81, 1004.63, 566.45, 761.76, 242.12, 0.000, 0.000, 0.000, 20:50:56.792, 1582471256792
82, 1025.27, 626.88, 775.40, 294.90, 0.000, 0.000, 0.000, 20:50:56.792, 1582471256792
83, 1071.99, 766.74, 859.01, 541.91, 0.000, 0.000, 0.000, 20:50:56.806, 1582471256806
84, 1015.05, 578.64, 776.00, 293.22, 0.000, 0.000, 0.000, 20:50:56.806, 1582471256806
85, 998.18, 556.89, 753.11, 234.67, 0.000, 0.000, 0.000, 20:50:56.822, 1582471256822
86, 1040.76, 631.01, 801.73, 302.33, 0.000, 0.000, 0.000, 20:50:56.822, 1582471256822
87, 1077.58, 760.67, 862.42, 544.67, 0.000, 0.000, 0.000, 20:50:56.822, 1582471256822
88, 1069.91, 623.55, 824.54, 349.31, 0.000, 0.000, 0.000, 20:50:56.822, 1582471256822
89, 1029.43, 574.71, 775.37, 251.66, 0.000, 0.000, 0.000, 20:50:56.836, 1582471256836
90, 1042.48, 627.38, 794.73, 310.14, 0.000, 0.000, 0.000, 20:50:56.836, 1582471256836
91, 1068.34, 750.90, 834.34, 519.45, 0.000, 0.000, 0.000, 20:50:56.851, 1582471256851
92, 1023.85, 587.90, 769.03, 316.16, 0.000, 0.000, 0.000, 20:50:56.851, 1582471256851
93, 1020.07, 565.90, 742.59, 238.20, 0.000, 0.000, 0.000, 20:50:56.852, 1582471256852
94, 1097.55, 661.95, 820.15, 326.59, 0.000, 0.000, 0.000, 20:50:56.852, 1582471256852
95, 1066.24, 743.08, 864.66, 526.74, 0.000, 0.000, 0.000, 20:50:56.866, 1582471256866
96, 1032.28, 584.35, 782.19, 309.17, 0.000, 0.000, 0.000, 20:50:56.866, 1582471256866
97, 1020.41, 567.62, 725.90, 230.76, 0.000, 0.000, 0.000, 20:50:56.882, 1582471256882
98, 1010.65, 596.74, 743.52, 277.49, 0.000, 0.000, 0.000, 20:50:56.882, 1582471256882
99, 1063.57, 733.14, 824.74, 516.39, 0.000, 0.000, 0.000, 20:50:56.882, 1582471256882
100, 1055.81, 599.35, 801.02, 324.62, 0.000, 0.000, 0.000, 20:50:56.882, 1582471256882
101, 1026.76, 566.09, 751.55, 249.93, 0.000, 0.000, 0.000, 20:50:56.896, 1582471256896
102, 1044.65, 617.87, 765.57, 289.84, 0.000, 0.000, 0.000, 20:50:56.896, 1582471256896
103, 1086.06, 749.72, 841.99, 526.35, 0.000, 0.000, 0.000, 20:50:56.912, 1582471256912
104, 1034.73, 585.19, 770.83, 317.87, 0.000, 0.000, 0.000, 20:50:56.912, 1582471256912
105, 1059.95, 578.06, 780.92, 262.31, 0.000, 0.000, 0.000, 20:50:56.912, 1582471256912
106, 1047.26, 606.58, 754.68, 295.33, 0.000, 0.000, 0.000, 20:50:56.912, 1582471256912
107, 1101.87, 754.58, 839.24, 526.85, 0.000, 0.000, 0.000, 20:50:56.926, 1582471256926
108, 1081.12, 617.55, 807.81, 346.29, 0.000, 0.000, 0.000, 20:50:56.926, 1582471256926
109, 1045.22, 570.21, 722.07, 239.92, 0.000, 0.000, 0.000, 20:50:56.942, 1582471256942
110, 1076.20, 617.29, 798.70, 312.14, 0.000, 0.000, 0.000, 20:50:56.942, 1582471256942
111, 1112.40, 746.57, 864.53, 545.43, 0.000, 0.000, 0.000, 20:50:56.942, 1582471256942
112, 1024.45, 575.95, 708.14, 318.50, 0.000, 0.000, 0.000, 20:50:56.942, 1582471256942
113, 1036.57, 555.15, 714.72, 239.30, 0.000, 0.000, 0.000, 20:50:56.956, 1582471256956
114, 1042.02, 581.41, 753.97, 279.95, 0.000, 0.000, 0.000, 20:50:56.956, 1582471256956
115, 1072.59, 717.15, 810.87, 519.42, 0.000, 0.000, 0.000, 20:50:56.972, 1582471256972
116, 1041.18, 577.59, 738.33, 330.33, 0.000, 0.000, 0.000, 20:50:56.972, 1582471256972
117, 1043.48, 545.50, 717.87, 244.78, 0.000, 0.000, 0.000, 20:50:56.972, 1582471256972
118, 1072.87, 609.76, 744.29, 301.35, 0.000, 0.000, 0.000, 20:50:56.972, 1582471256972
119, 1083.13, 727.16, 801.22, 524.18, 0.000, 0.000, 0.000, 20:50:56.986, 1582471256986
120, 1046.51, 583.44, 749.32, 337.68, 0.000, 0.000, 0.000, 20:50:56.986, 1582471256986
121, 1051.32, 553.86, 718.17, 253.35, 0.000, 0.000, 0.000, 20:50:57.002, 1582471257002
122, 1104.74, 620.74, 779.47, 316.00, 0.000, 0.000, 0.000, 20:50:57.002, 1582471257002
123, 1101.18, 741.88, 809.32, 524.37, 0.000, 0.000, 0.000, 20:50:57.002, 1582471257002
124, 1033.33, 573.98, 735.58, 338.55, 0.000, 0.000, 0.000, 20:50:57.002, 1582471257002
125, 1052.09, 550.46, 728.09, 263.81, 0.000, 0.000, 0.000, 20:50:57.016, 1582471257016
126, 1066.19, 589.90, 747.97, 292.01, 0.000, 0.000, 0.000, 20:50:57.016, 1582471257016
127, 1098.71, 721.62, 783.55, 517.85, 0.000, 0.000, 0.000, 20:50:57.032, 1582471257032
128, 1046.46, 586.51, 719.60, 345.92, 0.000, 0.000, 0.000, 20:50:57.032, 1582471257032
129, 1004.24, 509.19, 670.47, 216.17, 0.000, 0.000, 0.000, 20:50:57.032, 1582471257032
130, 1024.68, 556.39, 693.50, 263.01, 0.000, 0.000, 0.000, 20:50:57.032, 1582471257032
131, 1067.04, 703.81, 756.68, 501.79, 0.000, 0.000, 0.000, 20:50:57.046, 1582471257046
132, 1032.79, 573.29, 715.27, 342.58, 0.000, 0.000, 0.000, 20:50:57.046, 1582471257046
133, 1024.78, 516.43, 676.98, 228.36, 0.000, 0.000, 0.000, 20:50:57.062, 1582471257062
134, 1043.08, 563.95, 698.81, 274.30, 0.000, 0.000, 0.000, 20:50:57.062, 1582471257062
135, 1066.88, 697.26, 746.41, 494.30, 0.000, 0.000, 0.000, 20:50:57.062, 1582471257062
136, 1063.18, 590.54, 727.85, 363.97, 0.000, 0.000, 0.000, 20:50:57.062, 1582471257062
137, 1060.03, 539.77, 698.79, 234.99, 0.000, 0.000, 0.000, 20:50:57.076, 1582471257076
138, 1027.05, 537.01, 678.56, 251.24, 0.000, 0.000, 0.000, 20:50:57.076, 1582471257076
139, 1074.48, 693.51, 765.35, 497.02, 0.000, 0.000, 0.000, 20:50:57.092, 1582471257092
140, 1052.07, 582.40, 718.14, 352.45, 0.000, 0.000, 0.000, 20:50:57.092, 1582471257092
141, 1031.60, 513.22, 669.89, 229.22, 0.000, 0.000, 0.000, 20:50:57.092, 1582471257092
142, 1039.62, 533.65, 696.18, 258.95, 0.000, 0.000, 0.000, 20:50:57.092, 1582471257092
143, 1062.71, 678.54, 724.84, 478.34, 0.000, 0.000, 0.000, 20:50:57.106, 1582471257106
144, 1072.35, 593.91, 729.47, 369.12, 0.000, 0.000, 0.000, 20:50:57.106, 1582471257106
145, 1023.22, 500.98, 655.91, 223.00, 0.000, 0.000, 0.000, 20:50:57.122, 1582471257122
146, 1008.65, 519.87, 652.37, 239.48, 0.000, 0.000, 0.000, 20:50:57.122, 1582471257122
147, 1061.51, 678.24, 718.37, 480.56, 0.000, 0.000, 0.000, 20:50:57.122, 1582471257122
148, 1043.14, 570.40, 691.08, 358.73, 0.000, 0.000, 0.000, 20:50:57.122, 1582471257122
149, 1022.81, 499.81, 655.71, 225.45, 0.000, 0.000, 0.000, 20:50:57.136, 1582471257136
150, 1038.42, 530.26, 660.01, 247.59, 0.000, 0.000, 0.000, 20:50:57.136, 1582471257136
151, 1048.66, 656.09, 709.30, 475.03, 0.000, 0.000, 0.000, 20:50:57.167, 1582471257167
152, 1052.01, 585.27, 704.20, 376.47, 0.000, 0.000, 0.000, 20:50:57.167, 1582471257167
153, 1042.50, 506.88, 658.62, 240.65, 0.000, 0.000, 0.000, 20:50:57.168, 1582471257168
154, 1035.15, 520.01, 651.75, 246.16, 0.000, 0.000, 0.000, 20:50:57.168, 1582471257168
155, 1073.62, 667.46, 727.95, 479.22, 0.000, 0.000, 0.000, 20:50:57.168, 1582471257168
156, 1062.26, 566.21, 717.57, 380.83, 0.000, 0.000, 0.000, 20:50:57.168, 1582471257168
157, 1054.63, 497.57, 690.34, 239.06, 0.000, 0.000, 0.000, 20:50:57.182, 1582471257182
158, 1074.44, 523.92, 720.28, 283.00, 0.000, 0.000, 0.000, 20:50:57.182, 1582471257182
159, 1027.32, 630.00, 662.90, 456.42, 0.000, 0.000, 0.000, 20:50:57.182, 1582471257182
160, 1031.16, 556.82, 671.14, 369.93, 0.000, 0.000, 0.000, 20:50:57.182, 1582471257182
161, 1001.43, 465.65, 608.58, 216.77, 0.000, 0.000, 0.000, 20:50:57.196, 1582471257196
162, 999.89, 477.16, 593.16, 214.30, 0.000, 0.000, 0.000, 20:50:57.196, 1582471257196
163, 1031.97, 628.89, 679.13, 460.59, 0.000, 0.000, 0.000, 20:50:57.212, 1582471257212
164, 1040.58, 562.04, 681.06, 386.09, 0.000, 0.000, 0.000, 20:50:57.212, 1582471257212
165, 1013.12, 472.24, 620.88, 222.65, 0.000, 0.000, 0.000, 20:50:57.212, 1582471257212
166, 998.80, 466.69, 599.80, 213.41, 0.000, 0.000, 0.000, 20:50:57.212, 1582471257212
167, 1048.82, 636.50, 678.65, 463.96, 0.000, 0.000, 0.000, 20:50:57.226, 1582471257226
168, 1023.70, 539.68, 660.96, 370.28, 0.000, 0.000, 0.000, 20:50:57.226, 1582471257226
169, 1006.57, 447.36, 609.04, 221.15, 0.000, 0.000, 0.000, 20:50:57.241, 1582471257241
170, 1022.78, 475.40, 626.43, 224.50, 0.000, 0.000, 0.000, 20:50:57.241, 1582471257241
171, 1076.89, 657.15, 706.67, 484.82, 0.000, 0.000, 0.000, 20:50:57.242, 1582471257242
172, 1071.49, 589.31, 712.65, 422.16, 0.000, 0.000, 0.000, 20:50:57.242, 1582471257242
173, 986.93, 428.73, 589.30, 201.43, 0.000, 0.000, 0.000, 20:50:57.256, 1582471257256
174, 1008.87, 449.83, 590.06, 208.25, 0.000, 0.000, 0.000, 20:50:57.256, 1582471257256
175, 1045.05, 610.15, 677.21, 438.01, 0.000, 0.000, 0.000, 20:50:57.271, 1582471257271
176, 1004.47, 522.80, 648.59, 369.08, 0.000, 0.000, 0.000, 20:50:57.271, 1582471257271
177, 870.80, 340.08, 458.79, 123.07, 0.000, 0.000, 0.000, 20:50:57.272, 1582471257272
178, 910.65, 372.59, 484.34, 133.73, 0.000, 0.000, 0.000, 20:50:57.272, 1582471257272
179, 919.93, 497.76, 523.71, 339.01, 0.000, 0.000, 0.000, 20:50:57.286, 1582471257286
180, 886.19, 398.80, 514.77, 266.40, 0.000, 0.000, 0.000, 20:50:57.286, 1582471257286
181, 836.05, 269.34, 429.43, 61.71, 0.000, 0.000, 0.000, 20:50:57.302, 1582471257302
182, 845.62, 271.15, 422.61, 50.72, 0.000, 0.000, 0.000, 20:50:57.302, 1582471257302
183, 845.26, 419.30, 438.69, 269.35, 0.000, 0.000, 0.000, 20:50:57.302, 1582471257302
184, 830.24, 355.92, 432.21, 213.72, 0.000, 0.000, 0.000, 20:50:57.302, 1582471257302
185, 788.83, 214.32, 380.37, 18.00, 0.000, 0.000, 0.000, 20:50:57.316, 1582471257316
186, 775.22, 214.23, 346.94, -7.29, 0.000, 0.000, 0.000, 20:50:57.316, 1582471257316
187, 815.15, 390.38, 418.83, 239.79, 0.000, 0.000, 0.000, 20:50:57.332, 1582471257332
188, 840.19, 353.27, 454.14, 223.69, 0.000, 0.000, 0.000, 20:50:57.332, 1582471257332
189, 768.07, 189.49, 344.10, -7.67, 0.000, 0.000, 0.000, 20:50:57.332, 1582471257332
190, 768.85, 192.19, 325.48, -22.15, 0.000, 0.000, 0.000, 20:50:57.332, 1582471257332
191, 846.75, 395.54, 440.76, 249.13, 0.000, 0.000, 0.000, 20:50:57.346, 1582471257346
192, 844.12, 363.34, 445.50, 239.78, 0.000, 0.000, 0.000, 20:50:57.346, 1582471257346
193, 851.59, 254.46, 398.28, 49.60, 0.000, 0.000, 0.000, 20:50:57.362, 1582471257362
194, 856.46, 266.85, 391.70, 44.49, 0.000, 0.000, 0.000, 20:50:57.362, 1582471257362
195, 894.19, 438.71, 482.92, 292.08, 0.000, 0.000, 0.000, 20:50:57.362, 1582471257362
196, 893.44, 418.68, 497.75, 288.27, 0.000, 0.000, 0.000, 20:50:57.362, 1582471257362
197, 880.96, 294.15, 436.45, 83.73, 0.000, 0.000, 0.000, 20:50:57.376, 1582471257376
198, 888.05, 294.75, 423.11, 72.30, 0.000, 0.000, 0.000, 20:50:57.376, 1582471257376
199, 950.13, 496.43, 517.30, 340.38, 0.000, 0.000, 0.000, 20:50:57.392, 1582471257392
200, 981.11, 499.79, 568.56, 354.15, 0.000, 0.000, 0.000, 20:50:57.392, 1582471257392
0, 914.48, 329.61, 456.59, 106.67, 0.000, 0.000, 0.000, 20:50:57.392, 1582471257392
1, 917.56, 334.16, 458.91, 97.93, 0.000, 0.000, 0.000, 20:50:57.407, 1582471257407
2, 967.77, 526.42, 533.16, 352.08, 0.000, 0.000, 0.000, 20:50:57.407, 1582471257407
3, 969.44, 504.19, 535.55, 360.55, 0.000, 0.000, 0.000, 20:50:57.407, 1582471257407
4, 919.30, 346.01, 444.64, 121.16, 0.000, 0.000, 0.000, 20:50:57.407, 1582471257407
5, 956.73, 363.22, 485.79, 115.86, 0.000, 0.000, 0.000, 20:50:57.421, 1582471257421
6, 981.81, 547.10, 523.62, 353.17, 0.000, 0.000, 0.000, 20:50:57.421, 1582471257421
7, 971.17, 531.73, 534.62, 369.14, 0.000, 0.000, 0.000, 20:50:57.436, 1582471257436
8, 966.84, 396.47, 474.71, 166.43, 0.000, 0.000, 0.000, 20:50:57.436, 1582471257436
9, 946.37, 387.28, 474.24, 149.17, 0.000, 0.000, 0.000, 20:50:57.452, 1582471257452
10, 995.14, 574.74, 550.33, 391.49, 0.000, 0.000, 0.000, 20:50:57.452, 1582471257452
11, 1001.67, 571.91, 572.35, 405.97, 0.000, 0.000, 0.000, 20:50:57.452, 1582471257452
12, 962.99, 382.12, 504.98, 152.43, 0.000, 0.000, 0.000, 20:50:57.452, 1582471257452
13, 948.89, 384.95, 476.51, 137.26, 0.000, 0.000, 0.000, 20:50:57.467, 1582471257467
14, 1001.50, 578.38, 543.06, 379.72, 0.000, 0.000, 0.000, 20:50:57.467, 1582471257467
15, 1012.26, 580.36, 582.54, 419.98, 0.000, 0.000, 0.000, 20:50:57.467, 1582471257467
16, 972.26, 404.50, 519.20, 169.93, 0.000, 0.000, 0.000, 20:50:57.467, 1582471257467
17, 886.52, 352.06, 411.02, 103.40, 0.000, 0.000, 0.000, 20:50:57.481, 1582471257481
18, 929.14, 535.51, 496.64, 336.28, 0.000, 0.000, 0.000, 20:50:57.481, 1582471257481
19, 970.90, 584.29, 579.22, 427.33, 0.000, 0.000, 0.000, 20:50:57.512, 1582471257512
20, 963.08, 422.97, 527.28, 192.92, 0.000, 0.000, 0.000, 20:50:57.512, 1582471257512
21, 894.92, 368.14, 420.36, 103.70, 0.000, 0.000, 0.000, 20:50:57.513, 1582471257513
22, 933.72, 539.97, 492.36, 331.15, 0.000, 0.000, 0.000, 20:50:57.513, 1582471257513
23, 965.53, 581.33, 577.14, 426.81, 0.000, 0.000, 0.000, 20:50:57.514, 1582471257514
24, 932.79, 421.19, 495.06, 175.40, 0.000, 0.000, 0.000, 20:50:57.514, 1582471257514
