%OpenBCI Raw EEG Data
%Number of channels = 4
%Sample Rate = 200.0 Hz
%First Column = SampleIndex
%Last Column = Timestamp 
%Other Columns = EEG data in microvolts followed by Accel Data (in G) interleaved with Aux Data
103, 1390.04, 1376.15, 807.96, 221.52, 0.000, 0.000, 0.000, 20:01:48.196, 1582468308196
104, 1399.08, 1389.44, 800.80, 236.06, 0.000, 0.000, 0.000, 20:01:48.196, 1582468308196
105, 1400.38, 1417.37, 797.33, 243.42, 0.000, 0.000, 0.000, 20:01:48.196, 1582468308196
106, 1405.51, 1408.35, 796.17, 228.27, 0.000, 0.000, 0.000, 20:01:48.196, 1582468308196
107, 1374.00, 1387.56, 807.30, 210.09, 0.000, 0.000, 0.000, 20:01:48.210, 1582468308210
108, 1393.76, 1405.10, 801.54, 225.13, 0.000, 0.000, 0.000, 20:01:48.210, 1582468308210
109, 1399.51, 1420.63, 797.21, 243.25, 0.000, 0.000, 0.000, 20:01:48.226, 1582468308226
110, 1403.78, 1419.21, 800.95, 237.69, 0.000, 0.000, 0.000, 20:01:48.226, 1582468308226
111, 1386.05, 1387.65, 806.23, 208.02, 0.000, 0.000, 0.000, 20:01:48.226, 1582468308226
112, 1397.71, 1404.60, 801.02, 219.83, 0.000, 0.000, 0.000, 20:01:48.226, 1582468308226
113, 1394.88, 1427.90, 795.55, 236.26, 0.000, 0.000, 0.000, 20:01:48.240, 1582468308240
114, 1397.44, 1439.85, 799.50, 243.99, 0.000, 0.000, 0.000, 20:01:48.240, 1582468308240
115, 1400.51, 1394.03, 814.48, 217.86, 0.000, 0.000, 0.000, 20:01:48.256, 1582468308256
116, 1408.95, 1406.23, 810.22, 227.03, 0.000, 0.000, 0.000, 20:01:48.256, 1582468308256
117, 1405.83, 1403.12, 794.81, 242.48, 0.000, 0.000, 0.000, 20:01:48.256, 1582468308256
118, 1402.85, 1434.78, 809.95, 257.11, 0.000, 0.000, 0.000, 20:01:48.256, 1582468308256
119, 1387.23, 1405.86, 824.65, 237.54, 0.000, 0.000, 0.000, 20:01:48.270, 1582468308270
120, 1396.80, 1417.61, 807.78, 238.87, 0.000, 0.000, 0.000, 20:01:48.270, 1582468308270
121, 1407.97, 1427.53, 803.24, 256.86, 0.000, 0.000, 0.000, 20:01:48.286, 1582468308286
122, 1401.31, 1407.87, 801.04, 240.66, 0.000, 0.000, 0.000, 20:01:48.286, 1582468308286
123, 1387.04, 1368.41, 807.34, 210.71, 0.000, 0.000, 0.000, 20:01:48.286, 1582468308286
124, 1404.29, 1395.85, 810.12, 226.59, 0.000, 0.000, 0.000, 20:01:48.286, 1582468308286
125, 1420.44, 1415.39, 807.64, 236.74, 0.000, 0.000, 0.000, 20:01:48.300, 1582468308300
126, 1384.81, 1412.34, 794.07, 224.89, 0.000, 0.000, 0.000, 20:01:48.300, 1582468308300
127, 1387.47, 1381.34, 806.52, 203.11, 0.000, 0.000, 0.000, 20:01:48.316, 1582468308316
128, 1405.62, 1416.67, 813.92, 228.70, 0.000, 0.000, 0.000, 20:01:48.316, 1582468308316
129, 1422.70, 1438.15, 807.68, 226.61, 0.000, 0.000, 0.000, 20:01:48.316, 1582468308316
130, 1407.63, 1423.11, 806.97, 228.22, 0.000, 0.000, 0.000, 20:01:48.316, 1582468308316
131, 1384.84, 1399.06, 818.74, 209.96, 0.000, 0.000, 0.000, 20:01:48.330, 1582468308330
132, 1404.49, 1403.54, 799.81, 216.48, 0.000, 0.000, 0.000, 20:01:48.330, 1582468308330
133, 1406.01, 1414.41, 796.88, 235.05, 0.000, 0.000, 0.000, 20:01:48.346, 1582468308346
134, 1424.11, 1435.57, 809.18, 246.82, 0.000, 0.000, 0.000, 20:01:48.346, 1582468308346
135, 1399.83, 1409.14, 829.35, 231.21, 0.000, 0.000, 0.000, 20:01:48.346, 1582468308346
136, 1413.38, 1396.57, 813.54, 244.48, 0.000, 0.000, 0.000, 20:01:48.346, 1582468308346
137, 1430.66, 1416.57, 812.44, 251.66, 0.000, 0.000, 0.000, 20:01:48.360, 1582468308360
138, 1413.78, 1422.33, 811.69, 253.82, 0.000, 0.000, 0.000, 20:01:48.360, 1582468308360
139, 1400.21, 1397.87, 823.34, 236.69, 0.000, 0.000, 0.000, 20:01:48.376, 1582468308376
140, 1412.63, 1395.28, 809.64, 233.95, 0.000, 0.000, 0.000, 20:01:48.376, 1582468308376
141, 1410.84, 1417.19, 803.93, 246.09, 0.000, 0.000, 0.000, 20:01:48.376, 1582468308376
142, 1405.95, 1436.31, 813.03, 249.13, 0.000, 0.000, 0.000, 20:01:48.376, 1582468308376
143, 1382.60, 1403.54, 820.91, 229.88, 0.000, 0.000, 0.000, 20:01:48.390, 1582468308390
144, 1423.14, 1417.54, 814.32, 233.03, 0.000, 0.000, 0.000, 20:01:48.390, 1582468308390
145, 1436.92, 1426.83, 807.56, 240.02, 0.000, 0.000, 0.000, 20:01:48.406, 1582468308406
146, 1429.03, 1408.32, 805.24, 226.19, 0.000, 0.000, 0.000, 20:01:48.406, 1582468308406
147, 1395.57, 1391.64, 812.55, 211.78, 0.000, 0.000, 0.000, 20:01:48.406, 1582468308406
148, 1395.42, 1430.04, 813.94, 233.48, 0.000, 0.000, 0.000, 20:01:48.406, 1582468308406
149, 1429.90, 1421.92, 809.79, 238.96, 0.000, 0.000, 0.000, 20:01:48.420, 1582468308420
150, 1422.75, 1419.04, 803.24, 225.85, 0.000, 0.000, 0.000, 20:01:48.420, 1582468308420
151, 1393.59, 1395.37, 816.58, 225.44, 0.000, 0.000, 0.000, 20:01:48.436, 1582468308436
152, 1419.88, 1397.21, 812.42, 242.18, 0.000, 0.000, 0.000, 20:01:48.436, 1582468308436
153, 1417.86, 1431.45, 812.69, 258.43, 0.000, 0.000, 0.000, 20:01:48.436, 1582468308436
154, 1413.34, 1426.50, 816.52, 254.21, 0.000, 0.000, 0.000, 20:01:48.436, 1582468308436
155, 1387.24, 1376.33, 813.58, 231.67, 0.000, 0.000, 0.000, 20:01:48.450, 1582468308450
156, 1403.33, 1390.91, 803.94, 231.58, 0.000, 0.000, 0.000, 20:01:48.450, 1582468308450
157, 1429.39, 1421.76, 807.90, 250.68, 0.000, 0.000, 0.000, 20:01:48.466, 1582468308466
158, 1418.41, 1421.67, 810.73, 240.74, 0.000, 0.000, 0.000, 20:01:48.466, 1582468308466
159, 1390.04, 1393.80, 819.97, 220.06, 0.000, 0.000, 0.000, 20:01:48.466, 1582468308466
160, 1409.61, 1392.49, 802.81, 220.38, 0.000, 0.000, 0.000, 20:01:48.466, 1582468308466
161, 1410.86, 1423.62, 802.95, 241.67, 0.000, 0.000, 0.000, 20:01:48.480, 1582468308480
162, 1432.15, 1443.53, 820.53, 244.66, 0.000, 0.000, 0.000, 20:01:48.480, 1582468308480
163, 1412.07, 1401.37, 819.69, 207.90, 0.000, 0.000, 0.000, 20:01:48.496, 1582468308496
164, 1425.12, 1375.75, 802.05, 215.00, 0.000, 0.000, 0.000, 20:01:48.496, 1582468308496
165, 1423.62, 1404.24, 799.99, 227.24, 0.000, 0.000, 0.000, 20:01:48.496, 1582468308496
166, 1418.38, 1412.95, 807.81, 228.39, 0.000, 0.000, 0.000, 20:01:48.496, 1582468308496
167, 1405.04, 1384.41, 820.82, 219.74, 0.000, 0.000, 0.000, 20:01:48.510, 1582468308510
168, 1409.56, 1407.75, 811.90, 239.61, 0.000, 0.000, 0.000, 20:01:48.510, 1582468308510
169, 1421.78, 1407.78, 805.07, 254.66, 0.000, 0.000, 0.000, 20:01:48.541, 1582468308541
170, 1425.82, 1416.99, 810.71, 249.16, 0.000, 0.000, 0.000, 20:01:48.541, 1582468308541
171, 1407.16, 1384.60, 823.65, 230.96, 0.000, 0.000, 0.000, 20:01:48.542, 1582468308542
172, 1419.76, 1381.68, 805.32, 231.28, 0.000, 0.000, 0.000, 20:01:48.542, 1582468308542
173, 1423.51, 1417.24, 798.01, 245.59, 0.000, 0.000, 0.000, 20:01:48.543, 1582468308543
174, 1414.27, 1412.35, 808.22, 237.06, 0.000, 0.000, 0.000, 20:01:48.543, 1582468308543
175, 1397.66, 1383.90, 808.08, 213.48, 0.000, 0.000, 0.000, 20:01:48.556, 1582468308556
176, 1397.70, 1389.74, 810.10, 219.09, 0.000, 0.000, 0.000, 20:01:48.556, 1582468308556
177, 1431.67, 1411.59, 791.31, 226.02, 0.000, 0.000, 0.000, 20:01:48.556, 1582468308556
178, 1416.77, 1402.60, 799.94, 221.30, 0.000, 0.000, 0.000, 20:01:48.556, 1582468308556
179, 1408.40, 1353.32, 806.37, 193.92, 0.000, 0.000, 0.000, 20:01:48.570, 1582468308570
180, 1411.21, 1385.02, 799.00, 218.11, 0.000, 0.000, 0.000, 20:01:48.570, 1582468308570
181, 1413.53, 1426.06, 804.53, 234.48, 0.000, 0.000, 0.000, 20:01:48.586, 1582468308586
182, 1408.83, 1417.24, 805.33, 237.22, 0.000, 0.000, 0.000, 20:01:48.586, 1582468308586
183, 1418.72, 1386.54, 818.92, 210.67, 0.000, 0.000, 0.000, 20:01:48.586, 1582468308586
184, 1438.07, 1404.87, 820.24, 233.57, 0.000, 0.000, 0.000, 20:01:48.586, 1582468308586
185, 1424.31, 1425.71, 808.61, 250.96, 0.000, 0.000, 0.000, 20:01:48.600, 1582468308600
186, 1418.25, 1413.99, 801.64, 246.86, 0.000, 0.000, 0.000, 20:01:48.600, 1582468308600
187, 1400.73, 1385.96, 814.98, 224.34, 0.000, 0.000, 0.000, 20:01:48.616, 1582468308616
188, 1426.85, 1388.06, 809.97, 230.45, 0.000, 0.000, 0.000, 20:01:48.616, 1582468308616
189, 1428.89, 1415.82, 812.81, 249.32, 0.000, 0.000, 0.000, 20:01:48.616, 1582468308616
190, 1418.40, 1416.63, 807.78, 234.73, 0.000, 0.000, 0.000, 20:01:48.616, 1582468308616
191, 1408.56, 1377.68, 820.76, 202.90, 0.000, 0.000, 0.000, 20:01:48.630, 1582468308630
192, 1407.32, 1371.77, 792.97, 213.58, 0.000, 0.000, 0.000, 20:01:48.630, 1582468308630
193, 1416.03, 1400.14, 794.67, 224.83, 0.000, 0.000, 0.000, 20:01:48.646, 1582468308646
194, 1426.60, 1411.43, 804.27, 224.69, 0.000, 0.000, 0.000, 20:01:48.646, 1582468308646
195, 1411.31, 1377.75, 807.90, 194.87, 0.000, 0.000, 0.000, 20:01:48.646, 1582468308646
196, 1418.23, 1396.23, 804.09, 212.87, 0.000, 0.000, 0.000, 20:01:48.646, 1582468308646
197, 1433.52, 1414.65, 810.03, 231.29, 0.000, 0.000, 0.000, 20:01:48.660, 1582468308660
198, 1417.47, 1412.57, 808.47, 228.78, 0.000, 0.000, 0.000, 20:01:48.660, 1582468308660
199, 1398.02, 1396.98, 819.90, 208.53, 0.000, 0.000, 0.000, 20:01:48.676, 1582468308676
200, 1428.54, 1396.00, 807.75, 212.02, 0.000, 0.000, 0.000, 20:01:48.676, 1582468308676
0, 1445.60, 1429.92, 817.43, 238.62, 0.000, 0.000, 0.000, 20:01:48.676, 1582468308676
1, 1416.62, 1393.35, 803.13, 228.18, 0.000, 0.000, 0.000, 20:01:48.691, 1582468308691
2, 1419.13, 1355.60, 814.12, 208.22, 0.000, 0.000, 0.000, 20:01:48.691, 1582468308691
3, 1434.89, 1393.31, 808.35, 225.19, 0.000, 0.000, 0.000, 20:01:48.691, 1582468308691
4, 1427.87, 1411.69, 802.58, 234.23, 0.000, 0.000, 0.000, 20:01:48.691, 1582468308691
5, 1425.64, 1396.44, 808.28, 228.06, 0.000, 0.000, 0.000, 20:01:48.721, 1582468308721
6, 1412.76, 1364.25, 809.16, 204.24, 0.000, 0.000, 0.000, 20:01:48.721, 1582468308721
7, 1418.47, 1379.95, 808.73, 217.74, 0.000, 0.000, 0.000, 20:01:48.722, 1582468308722
8, 1445.83, 1416.75, 808.55, 236.65, 0.000, 0.000, 0.000, 20:01:48.722, 1582468308722
9, 1435.19, 1397.90, 807.73, 227.02, 0.000, 0.000, 0.000, 20:01:48.723, 1582468308723
10, 1442.43, 1387.24, 822.03, 208.82, 0.000, 0.000, 0.000, 20:01:48.723, 1582468308723
11, 1439.75, 1408.85, 829.35, 223.47, 0.000, 0.000, 0.000, 20:01:48.735, 1582468308735
12, 1426.72, 1408.34, 789.44, 227.64, 0.000, 0.000, 0.000, 20:01:48.735, 1582468308735
13, 1431.18, 1420.57, 806.26, 217.03, 0.000, 0.000, 0.000, 20:01:48.751, 1582468308751
14, 1414.50, 1391.67, 811.69, 195.49, 0.000, 0.000, 0.000, 20:01:48.751, 1582468308751
15, 1412.64, 1412.29, 812.96, 215.03, 0.000, 0.000, 0.000, 20:01:48.751, 1582468308751
16, 1428.50, 1406.51, 798.98, 217.92, 0.000, 0.000, 0.000, 20:01:48.751, 1582468308751
17, 1425.58, 1384.77, 806.42, 211.79, 0.000, 0.000, 0.000, 20:01:48.765, 1582468308765
18, 1411.42, 1361.25, 804.82, 189.98, 0.000, 0.000, 0.000, 20:01:48.765, 1582468308765
19, 1414.81, 1381.48, 799.01, 204.62, 0.000, 0.000, 0.000, 20:01:48.781, 1582468308781
20, 1439.07, 1387.40, 794.81, 223.04, 0.000, 0.000, 0.000, 20:01:48.781, 1582468308781
21, 1428.54, 1380.13, 805.68, 229.10, 0.000, 0.000, 0.000, 20:01:48.781, 1582468308781
22, 1410.94, 1354.83, 809.14, 209.17, 0.000, 0.000, 0.000, 20:01:48.781, 1582468308781
23, 1417.06, 1378.43, 809.81, 218.53, 0.000, 0.000, 0.000, 20:01:48.795, 1582468308795
24, 1433.10, 1408.34, 797.61, 226.36, 0.000, 0.000, 0.000, 20:01:48.795, 1582468308795
25, 1415.88, 1409.39, 806.67, 226.54, 0.000, 0.000, 0.000, 20:01:48.811, 1582468308811
26, 1425.01, 1382.15, 814.89, 208.24, 0.000, 0.000, 0.000, 20:01:48.811, 1582468308811
27, 1435.29, 1386.52, 810.50, 220.52, 0.000, 0.000, 0.000, 20:01:48.811, 1582468308811
28, 1448.87, 1418.41, 805.45, 226.90, 0.000, 0.000, 0.000, 20:01:48.811, 1582468308811
29, 1441.76, 1406.29, 810.30, 216.50, 0.000, 0.000, 0.000, 20:01:48.825, 1582468308825
30, 1413.05, 1369.63, 798.03, 184.72, 0.000, 0.000, 0.000, 20:01:48.825, 1582468308825
31, 1423.88, 1395.18, 808.16, 202.38, 0.000, 0.000, 0.000, 20:01:48.841, 1582468308841
32, 1420.17, 1393.84, 788.40, 211.70, 0.000, 0.000, 0.000, 20:01:48.841, 1582468308841
33, 1419.58, 1374.88, 790.50, 203.12, 0.000, 0.000, 0.000, 20:01:48.841, 1582468308841
34, 1412.68, 1361.64, 805.68, 198.02, 0.000, 0.000, 0.000, 20:01:48.841, 1582468308841
35, 1432.16, 1374.32, 808.72, 206.97, 0.000, 0.000, 0.000, 20:01:48.855, 1582468308855
36, 1449.11, 1393.06, 802.63, 225.74, 0.000, 0.000, 0.000, 20:01:48.855, 1582468308855
37, 1444.11, 1395.90, 811.72, 216.21, 0.000, 0.000, 0.000, 20:01:48.871, 1582468308871
38, 1400.01, 1350.32, 799.32, 188.52, 0.000, 0.000, 0.000, 20:01:48.871, 1582468308871
39, 1444.35, 1380.19, 814.40, 203.63, 0.000, 0.000, 0.000, 20:01:48.871, 1582468308871
40, 1443.01, 1419.36, 806.19, 232.03, 0.000, 0.000, 0.000, 20:01:48.871, 1582468308871
41, 1431.89, 1412.19, 814.34, 228.22, 0.000, 0.000, 0.000, 20:01:48.885, 1582468308885
42, 1410.57, 1362.19, 803.92, 202.13, 0.000, 0.000, 0.000, 20:01:48.885, 1582468308885
43, 1433.76, 1356.46, 803.03, 205.92, 0.000, 0.000, 0.000, 20:01:48.901, 1582468308901
44, 1460.34, 1409.86, 806.50, 221.88, 0.000, 0.000, 0.000, 20:01:48.901, 1582468308901
45, 1450.53, 1418.59, 819.22, 220.86, 0.000, 0.000, 0.000, 20:01:48.901, 1582468308901
46, 1418.44, 1365.15, 812.88, 190.15, 0.000, 0.000, 0.000, 20:01:48.901, 1582468308901
47, 1442.48, 1398.97, 824.27, 208.02, 0.000, 0.000, 0.000, 20:01:48.915, 1582468308915
48, 1448.38, 1401.69, 799.63, 219.17, 0.000, 0.000, 0.000, 20:01:48.915, 1582468308915
49, 1435.75, 1405.43, 810.42, 222.04, 0.000, 0.000, 0.000, 20:01:48.931, 1582468308931
50, 1428.59, 1368.92, 815.29, 211.56, 0.000, 0.000, 0.000, 20:01:48.931, 1582468308931
51, 1439.54, 1385.76, 811.44, 220.17, 0.000, 0.000, 0.000, 20:01:48.931, 1582468308931
52, 1446.72, 1411.28, 809.05, 232.16, 0.000, 0.000, 0.000, 20:01:48.931, 1582468308931
53, 1438.96, 1427.39, 823.04, 241.66, 0.000, 0.000, 0.000, 20:01:48.945, 1582468308945
54, 1424.94, 1381.73, 819.05, 210.65, 0.000, 0.000, 0.000, 20:01:48.945, 1582468308945
55, 1439.64, 1382.89, 811.61, 215.95, 0.000, 0.000, 0.000, 20:01:48.961, 1582468308961
56, 1456.75, 1414.43, 812.38, 235.37, 0.000, 0.000, 0.000, 20:01:48.961, 1582468308961
57, 1440.23, 1430.13, 825.12, 228.67, 0.000, 0.000, 0.000, 20:01:48.961, 1582468308961
58, 1453.90, 1381.54, 824.49, 200.40, 0.000, 0.000, 0.000, 20:01:48.961, 1582468308961
59, 1456.92, 1376.43, 818.61, 212.41, 0.000, 0.000, 0.000, 20:01:48.975, 1582468308975
60, 1453.42, 1390.23, 798.83, 216.73, 0.000, 0.000, 0.000, 20:01:48.975, 1582468308975
61, 1446.02, 1401.38, 809.24, 217.01, 0.000, 0.000, 0.000, 20:01:48.991, 1582468308991
62, 1418.61, 1366.79, 809.69, 200.30, 0.000, 0.000, 0.000, 20:01:48.991, 1582468308991
63, 1439.79, 1386.39, 811.63, 208.37, 0.000, 0.000, 0.000, 20:01:48.991, 1582468308991
64, 1449.96, 1417.86, 809.62, 221.35, 0.000, 0.000, 0.000, 20:01:48.991, 1582468308991
65, 1435.46, 1433.31, 828.11, 230.39, 0.000, 0.000, 0.000, 20:01:49.005, 1582468309005
66, 1425.17, 1386.81, 816.83, 203.26, 0.000, 0.000, 0.000, 20:01:49.005, 1582468309005
67, 1427.65, 1361.97, 802.43, 203.74, 0.000, 0.000, 0.000, 20:01:49.021, 1582468309021
68, 1446.45, 1391.62, 800.33, 220.42, 0.000, 0.000, 0.000, 20:01:49.021, 1582468309021
69, 1433.56, 1384.32, 806.14, 213.23, 0.000, 0.000, 0.000, 20:01:49.021, 1582468309021
70, 1426.07, 1356.74, 810.46, 192.38, 0.000, 0.000, 0.000, 20:01:49.021, 1582468309021
71, 1430.42, 1377.61, 810.60, 212.23, 0.000, 0.000, 0.000, 20:01:49.035, 1582468309035
72, 1428.94, 1419.08, 802.28, 234.65, 0.000, 0.000, 0.000, 20:01:49.035, 1582468309035
73, 1429.43, 1400.90, 804.05, 212.31, 0.000, 0.000, 0.000, 20:01:49.051, 1582468309051
74, 1428.18, 1343.39, 802.54, 184.25, 0.000, 0.000, 0.000, 20:01:49.051, 1582468309051
75, 1443.35, 1380.07, 804.01, 202.04, 0.000, 0.000, 0.000, 20:01:49.051, 1582468309051
76, 1444.87, 1395.81, 793.16, 212.07, 0.000, 0.000, 0.000, 20:01:49.051, 1582468309051
77, 1449.98, 1400.15, 814.55, 203.16, 0.000, 0.000, 0.000, 20:01:49.065, 1582468309065
78, 1420.89, 1379.60, 807.23, 188.76, 0.000, 0.000, 0.000, 20:01:49.065, 1582468309065
79, 1434.89, 1387.31, 805.05, 203.25, 0.000, 0.000, 0.000, 20:01:49.081, 1582468309081
80, 1436.77, 1388.54, 793.86, 210.86, 0.000, 0.000, 0.000, 20:01:49.081, 1582468309081
81, 1419.90, 1399.95, 806.37, 210.54, 0.000, 0.000, 0.000, 20:01:49.081, 1582468309081
82, 1421.10, 1358.86, 804.91, 184.47, 0.000, 0.000, 0.000, 20:01:49.081, 1582468309081
83, 1432.56, 1409.30, 817.94, 218.86, 0.000, 0.000, 0.000, 20:01:49.095, 1582468309095
84, 1431.21, 1414.46, 802.10, 228.33, 0.000, 0.000, 0.000, 20:01:49.095, 1582468309095
85, 1435.16, 1388.75, 808.80, 220.13, 0.000, 0.000, 0.000, 20:01:49.111, 1582468309111
86, 1424.72, 1354.08, 810.46, 195.60, 0.000, 0.000, 0.000, 20:01:49.111, 1582468309111
87, 1430.44, 1373.18, 809.26, 205.39, 0.000, 0.000, 0.000, 20:01:49.111, 1582468309111
88, 1440.17, 1413.35, 807.32, 234.16, 0.000, 0.000, 0.000, 20:01:49.111, 1582468309111
89, 1429.14, 1399.20, 809.27, 210.93, 0.000, 0.000, 0.000, 20:01:49.125, 1582468309125
90, 1416.86, 1374.61, 809.81, 207.12, 0.000, 0.000, 0.000, 20:01:49.125, 1582468309125
91, 1430.42, 1382.20, 809.63, 208.32, 0.000, 0.000, 0.000, 20:01:49.141, 1582468309141
92, 1433.45, 1414.79, 809.60, 217.36, 0.000, 0.000, 0.000, 20:01:49.141, 1582468309141
93, 1422.83, 1413.41, 811.91, 209.73, 0.000, 0.000, 0.000, 20:01:49.141, 1582468309141
94, 1429.28, 1355.96, 810.01, 179.92, 0.000, 0.000, 0.000, 20:01:49.141, 1582468309141
95, 1440.81, 1385.85, 817.52, 203.81, 0.000, 0.000, 0.000, 20:01:49.155, 1582468309155
96, 1442.62, 1412.69, 807.45, 216.62, 0.000, 0.000, 0.000, 20:01:49.155, 1582468309155
97, 1429.74, 1411.88, 811.59, 207.27, 0.000, 0.000, 0.000, 20:01:49.171, 1582468309171
98, 1410.35, 1374.18, 813.65, 191.60, 0.000, 0.000, 0.000, 20:01:49.171, 1582468309171
99, 1413.84, 1398.24, 810.62, 202.63, 0.000, 0.000, 0.000, 20:01:49.171, 1582468309171
100, 1434.39, 1417.01, 802.98, 209.13, 0.000, 0.000, 0.000, 20:01:49.171, 1582468309171
101, 1429.52, 1423.26, 820.64, 213.04, 0.000, 0.000, 0.000, 20:01:49.185, 1582468309185
102, 1404.37, 1383.42, 808.53, 201.81, 0.000, 0.000, 0.000, 20:01:49.185, 1582468309185
103, 1423.07, 1364.36, 800.87, 202.15, 0.000, 0.000, 0.000, 20:01:49.201, 1582468309201
104, 1425.66, 1392.21, 798.82, 215.58, 0.000, 0.000, 0.000, 20:01:49.201, 1582468309201
105, 1420.90, 1401.66, 809.16, 213.91, 0.000, 0.000, 0.000, 20:01:49.201, 1582468309201
106, 1409.17, 1361.94, 809.50, 192.11, 0.000, 0.000, 0.000, 20:01:49.201, 1582468309201
107, 1430.63, 1380.92, 811.33, 209.88, 0.000, 0.000, 0.000, 20:01:49.215, 1582468309215
108, 1436.68, 1409.61, 796.32, 217.92, 0.000, 0.000, 0.000, 20:01:49.215, 1582468309215
109, 1413.76, 1402.86, 806.14, 210.60, 0.000, 0.000, 0.000, 20:01:49.231, 1582468309231
110, 1395.97, 1369.47, 805.50, 190.40, 0.000, 0.000, 0.000, 20:01:49.231, 1582468309231
111, 1416.95, 1372.85, 799.46, 197.32, 0.000, 0.000, 0.000, 20:01:49.231, 1582468309231
112, 1421.01, 1394.56, 792.39, 203.84, 0.000, 0.000, 0.000, 20:01:49.231, 1582468309231
113, 1412.61, 1402.85, 811.17, 201.59, 0.000, 0.000, 0.000, 20:01:49.245, 1582468309245
114, 1397.19, 1353.52, 797.29, 181.67, 0.000, 0.000, 0.000, 20:01:49.245, 1582468309245
115, 1395.58, 1372.54, 798.64, 194.00, 0.000, 0.000, 0.000, 20:01:49.261, 1582468309261
116, 1403.01, 1409.93, 793.33, 212.73, 0.000, 0.000, 0.000, 20:01:49.261, 1582468309261
117, 1416.46, 1405.22, 805.71, 199.26, 0.000, 0.000, 0.000, 20:01:49.261, 1582468309261
118, 1389.97, 1360.84, 794.51, 177.55, 0.000, 0.000, 0.000, 20:01:49.261, 1582468309261
119, 1396.39, 1361.53, 790.41, 186.21, 0.000, 0.000, 0.000, 20:01:49.275, 1582468309275
120, 1413.47, 1368.03, 770.60, 196.74, 0.000, 0.000, 0.000, 20:01:49.275, 1582468309275
121, 1415.91, 1380.88, 794.87, 198.04, 0.000, 0.000, 0.000, 20:01:49.291, 1582468309291
122, 1397.19, 1366.39, 796.56, 185.92, 0.000, 0.000, 0.000, 20:01:49.291, 1582468309291
123, 1407.78, 1382.42, 798.55, 202.81, 0.000, 0.000, 0.000, 20:01:49.291, 1582468309291
124, 1426.88, 1400.05, 798.52, 221.39, 0.000, 0.000, 0.000, 20:01:49.291, 1582468309291
125, 1404.09, 1399.86, 804.69, 215.14, 0.000, 0.000, 0.000, 20:01:49.305, 1582468309305
126, 1381.97, 1385.75, 804.88, 192.72, 0.000, 0.000, 0.000, 20:01:49.305, 1582468309305
127, 1434.04, 1406.71, 813.06, 218.79, 0.000, 0.000, 0.000, 20:01:49.321, 1582468309321
128, 1423.31, 1401.36, 789.76, 212.19, 0.000, 0.000, 0.000, 20:01:49.321, 1582468309321
129, 1402.88, 1383.92, 794.96, 192.93, 0.000, 0.000, 0.000, 20:01:49.321, 1582468309321
130, 1405.21, 1374.01, 807.27, 199.12, 0.000, 0.000, 0.000, 20:01:49.321, 1582468309321
131, 1419.83, 1381.40, 803.20, 200.44, 0.000, 0.000, 0.000, 20:01:49.335, 1582468309335
132, 1432.45, 1431.04, 807.92, 233.06, 0.000, 0.000, 0.000, 20:01:49.335, 1582468309335
133, 1410.32, 1425.72, 812.56, 214.28, 0.000, 0.000, 0.000, 20:01:49.351, 1582468309351
134, 1387.54, 1341.32, 794.12, 181.54, 0.000, 0.000, 0.000, 20:01:49.351, 1582468309351
135, 1397.08, 1359.03, 798.09, 201.24, 0.000, 0.000, 0.000, 20:01:49.351, 1582468309351
136, 1422.91, 1400.90, 803.06, 218.76, 0.000, 0.000, 0.000, 20:01:49.351, 1582468309351
137, 1429.52, 1432.63, 828.41, 229.44, 0.000, 0.000, 0.000, 20:01:49.365, 1582468309365
138, 1396.09, 1395.64, 807.60, 204.48, 0.000, 0.000, 0.000, 20:01:49.365, 1582468309365
139, 1412.90, 1385.53, 809.58, 215.88, 0.000, 0.000, 0.000, 20:01:49.381, 1582468309381
140, 1440.03, 1402.62, 808.28, 232.84, 0.000, 0.000, 0.000, 20:01:49.381, 1582468309381
141, 1434.14, 1394.80, 812.84, 222.59, 0.000, 0.000, 0.000, 20:01:49.381, 1582468309381
142, 1406.28, 1370.04, 807.28, 210.05, 0.000, 0.000, 0.000, 20:01:49.381, 1582468309381
143, 1416.89, 1399.34, 809.96, 216.35, 0.000, 0.000, 0.000, 20:01:49.395, 1582468309395
144, 1404.43, 1428.06, 795.86, 232.96, 0.000, 0.000, 0.000, 20:01:49.395, 1582468309395
145, 1408.31, 1408.88, 804.56, 220.09, 0.000, 0.000, 0.000, 20:01:49.411, 1582468309411
146, 1403.63, 1363.18, 804.24, 196.22, 0.000, 0.000, 0.000, 20:01:49.411, 1582468309411
147, 1411.87, 1386.64, 805.26, 213.25, 0.000, 0.000, 0.000, 20:01:49.411, 1582468309411
148, 1423.17, 1417.32, 802.41, 230.30, 0.000, 0.000, 0.000, 20:01:49.411, 1582468309411
149, 1410.49, 1400.37, 810.83, 224.53, 0.000, 0.000, 0.000, 20:01:49.425, 1582468309425
150, 1386.57, 1364.99, 793.30, 204.66, 0.000, 0.000, 0.000, 20:01:49.425, 1582468309425
151, 1397.65, 1398.70, 800.97, 223.51, 0.000, 0.000, 0.000, 20:01:49.441, 1582468309441
152, 1439.72, 1431.99, 806.05, 243.71, 0.000, 0.000, 0.000, 20:01:49.441, 1582468309441
153, 1427.71, 1409.38, 814.17, 234.59, 0.000, 0.000, 0.000, 20:01:49.441, 1582468309441
154, 1409.51, 1373.67, 810.76, 207.94, 0.000, 0.000, 0.000, 20:01:49.441, 1582468309441
155, 1421.80, 1398.02, 811.06, 224.80, 0.000, 0.000, 0.000, 20:01:49.455, 1582468309455
156, 1418.34, 1432.11, 798.73, 239.34, 0.000, 0.000, 0.000, 20:01:49.455, 1582468309455
157, 1420.19, 1401.14, 803.18, 226.67, 0.000, 0.000, 0.000, 20:01:49.471, 1582468309471
158, 1396.27, 1374.65, 803.21, 203.33, 0.000, 0.000, 0.000, 20:01:49.471, 1582468309471
159, 1402.26, 1413.16, 808.07, 228.16, 0.000, 0.000, 0.000, 20:01:49.472, 1582468309472
160, 1400.39, 1450.72, 804.13, 239.95, 0.000, 0.000, 0.000, 20:01:49.472, 1582468309472
161, 1409.58, 1415.79, 809.98, 223.47, 0.000, 0.000, 0.000, 20:01:49.485, 1582468309485
162, 1407.66, 1355.31, 794.04, 198.92, 0.000, 0.000, 0.000, 20:01:49.485, 1582468309485
163, 1420.21, 1402.08, 806.92, 222.52, 0.000, 0.000, 0.000, 20:01:49.501, 1582468309501
164, 1427.08, 1432.12, 811.25, 243.50, 0.000, 0.000, 0.000, 20:01:49.501, 1582468309501
165, 1400.57, 1412.51, 805.62, 227.23, 0.000, 0.000, 0.000, 20:01:49.501, 1582468309501
166, 1392.19, 1355.51, 796.55, 208.29, 0.000, 0.000, 0.000, 20:01:49.501, 1582468309501
167, 1413.67, 1378.44, 799.31, 208.18, 0.000, 0.000, 0.000, 20:01:49.515, 1582468309515
168, 1421.92, 1404.15, 790.38, 225.08, 0.000, 0.000, 0.000, 20:01:49.515, 1582468309515
169, 1397.45, 1413.44, 806.92, 229.19, 0.000, 0.000, 0.000, 20:01:49.531, 1582468309531
170, 1416.42, 1393.69, 830.61, 218.79, 0.000, 0.000, 0.000, 20:01:49.531, 1582468309531
171, 1415.30, 1411.65, 830.50, 231.56, 0.000, 0.000, 0.000, 20:01:49.531, 1582468309531
172, 1417.87, 1419.55, 815.18, 234.29, 0.000, 0.000, 0.000, 20:01:49.531, 1582468309531
173, 1413.16, 1422.82, 827.92, 233.41, 0.000, 0.000, 0.000, 20:01:49.545, 1582468309545
174, 1395.86, 1392.53, 825.91, 224.77, 0.000, 0.000, 0.000, 20:01:49.545, 1582468309545
175, 1415.25, 1401.25, 821.17, 235.52, 0.000, 0.000, 0.000, 20:01:49.561, 1582468309561
176, 1419.54, 1444.95, 827.72, 252.23, 0.000, 0.000, 0.000, 20:01:49.561, 1582468309561
177, 1447.09, 1415.94, 838.54, 230.66, 0.000, 0.000, 0.000, 20:01:49.561, 1582468309561
178, 1410.37, 1407.86, 837.37, 225.65, 0.000, 0.000, 0.000, 20:01:49.561, 1582468309561
179, 1428.55, 1443.69, 843.02, 257.29, 0.000, 0.000, 0.000, 20:01:49.575, 1582468309575
180, 1432.09, 1414.37, 813.39, 227.40, 0.000, 0.000, 0.000, 20:01:49.575, 1582468309575
181, 1415.43, 1373.32, 814.07, 234.59, 0.000, 0.000, 0.000, 20:01:49.591, 1582468309591
182, 1368.26, 1384.23, 814.71, 222.18, 0.000, 0.000, 0.000, 20:01:49.591, 1582468309591
183, 1407.79, 1456.17, 846.12, 288.75, 0.000, 0.000, 0.000, 20:01:49.591, 1582468309591
184, 1460.03, 1447.86, 844.58, 262.67, 0.000, 0.000, 0.000, 20:01:49.591, 1582468309591
185, 1440.77, 1456.56, 856.45, 246.12, 0.000, 0.000, 0.000, 20:01:49.605, 1582468309605
186, 1401.29, 1403.47, 830.73, 229.50, 0.000, 0.000, 0.000, 20:01:49.605, 1582468309605
187, 1407.23, 1363.85, 813.52, 217.61, 0.000, 0.000, 0.000, 20:01:49.621, 1582468309621
188, 1403.61, 1390.15, 811.58, 232.89, 0.000, 0.000, 0.000, 20:01:49.621, 1582468309621
189, 1388.05, 1418.39, 825.46, 233.43, 0.000, 0.000, 0.000, 20:01:49.621, 1582468309621
190, 1367.77, 1407.05, 832.26, 227.55, 0.000, 0.000, 0.000, 20:01:49.621, 1582468309621
191, 1378.98, 1371.34, 810.73, 216.41, 0.000, 0.000, 0.000, 20:01:49.651, 1582468309651
192, 1391.10, 1474.29, 831.19, 261.87, 0.000, 0.000, 0.000, 20:01:49.651, 1582468309651
193, 1380.56, 1455.63, 828.17, 234.70, 0.000, 0.000, 0.000, 20:01:49.652, 1582468309652
194, 1366.87, 1380.53, 818.35, 201.35, 0.000, 0.000, 0.000, 20:01:49.652, 1582468309652
195, 1378.22, 1443.73, 833.73, 233.10, 0.000, 0.000, 0.000, 20:01:49.653, 1582468309653
196, 1379.53, 1351.46, 797.78, 226.65, 0.000, 0.000, 0.000, 20:01:49.653, 1582468309653
197, 1328.87, 1355.03, 807.98, 228.52, 0.000, 0.000, 0.000, 20:01:49.665, 1582468309665
198, 1292.77, 1344.96, 778.65, 180.97, 0.000, 0.000, 0.000, 20:01:49.665, 1582468309665
199, 1307.37, 1354.43, 778.96, 178.81, 0.000, 0.000, 0.000, 20:01:49.681, 1582468309681
200, 1309.69, 1416.30, 778.20, 227.46, 0.000, 0.000, 0.000, 20:01:49.681, 1582468309681
0, 1263.76, 1335.68, 747.87, 152.00, 0.000, 0.000, 0.000, 20:01:49.681, 1582468309681
1, 1204.57, 1325.36, 742.73, 142.59, 0.000, 0.000, 0.000, 20:01:49.696, 1582468309696
2, 1178.34, 1261.19, 691.59, 98.86, 0.000, 0.000, 0.000, 20:01:49.696, 1582468309696
3, 1145.67, 1300.28, 654.98, 83.80, 0.000, 0.000, 0.000, 20:01:49.696, 1582468309696
4, 1129.55, 1397.66, 692.37, 110.00, 0.000, 0.000, 0.000, 20:01:49.696, 1582468309696
5, 1041.69, 1184.37, 611.49, 18.49, 0.000, 0.000, 0.000, 20:01:49.727, 1582468309727
6, 1005.64, 1169.57, 581.10, 11.05, 0.000, 0.000, 0.000, 20:01:49.727, 1582468309727
7, 1035.62, 1067.74, 545.43, -26.09, 0.000, 0.000, 0.000, 20:01:49.727, 1582468309727
8, 1021.20, 1138.15, 599.21, -4.88, 0.000, 0.000, 0.000, 20:01:49.727, 1582468309727
9, 976.79, 1145.24, 606.23, -37.36, 0.000, 0.000, 0.000, 20:01:49.728, 1582468309728
10, 965.73, 1239.17, 636.06, 10.02, 0.000, 0.000, 0.000, 20:01:49.728, 1582468309728
11, 1016.78, 1103.83, 597.28, -56.77, 0.000, 0.000, 0.000, 20:01:49.740, 1582468309740
12, 956.73, 1054.48, 570.33, -58.01, 0.000, 0.000, 0.000, 20:01:49.740, 1582468309740
13, 934.98, 1174.06, 632.14, -28.56, 0.000, 0.000, 0.000, 20:01:49.756, 1582468309756
14, 989.57, 1187.43, 650.47, -9.66, 0.000, 0.000, 0.000, 20:01:49.756, 1582468309756
15, 983.80, 1217.10, 657.52, 0.12, 0.000, 0.000, 0.000, 20:01:49.756, 1582468309756
16, 957.35, 1190.90, 648.83, -11.79, 0.000, 0.000, 0.000, 20:01:49.756, 1582468309756
17, 994.09, 1073.76, 635.37, -48.80, 0.000, 0.000, 0.000, 20:01:49.770, 1582468309770
18, 963.70, 1179.43, 649.00, -2.95, 0.000, 0.000, 0.000, 20:01:49.770, 1582468309770
19, 969.77, 1119.13, 624.27, -23.59, 0.000, 0.000, 0.000, 20:01:49.786, 1582468309786
20, 970.24, 1208.29, 682.91, 6.66, 0.000, 0.000, 0.000, 20:01:49.786, 1582468309786
21, 923.75, 1218.70, 711.59, 1.32, 0.000, 0.000, 0.000, 20:01:49.786, 1582468309786
22, 924.98, 1189.72, 695.20, 15.93, 0.000, 0.000, 0.000, 20:01:49.786, 1582468309786
23, 972.79, 1199.53, 704.35, 11.02, 0.000, 0.000, 0.000, 20:01:49.800, 1582468309800
24, 991.42, 1173.11, 710.68, 17.19, 0.000, 0.000, 0.000, 20:01:49.800, 1582468309800
25, 980.75, 1327.82, 776.62, 62.72, 0.000, 0.000, 0.000, 20:01:49.831, 1582468309831
26, 1102.24, 1302.50, 793.73, 56.79, 0.000, 0.000, 0.000, 20:01:49.831, 1582468309831
27, 1187.99, 1188.16, 791.23, 66.06, 0.000, 0.000, 0.000, 20:01:49.832, 1582468309832
28, 1213.79, 1271.17, 839.12, 94.38, 0.000, 0.000, 0.000, 20:01:49.832, 1582468309832
29, 1476.46, 1340.67, 945.37, 101.85, 0.000, 0.000, 0.000, 20:01:49.833, 1582468309833
30, 1601.16, 1319.23, 966.49, 133.22, 0.000, 0.000, 0.000, 20:01:49.833, 1582468309833
31, 1895.71, 1327.80, 1046.09, 165.78, 0.000, 0.000, 0.000, 20:01:49.846, 1582468309846
32, 2193.12, 1297.19, 1158.74, 153.98, 0.000, 0.000, 0.000, 20:01:49.846, 1582468309846
33, 2214.81, 1338.22, 1169.15, 188.45, 0.000, 0.000, 0.000, 20:01:49.846, 1582468309846
34, 2231.31, 1544.25, 1237.13, 236.16, 0.000, 0.000, 0.000, 20:01:49.846, 1582468309846
35, 2250.81, 1575.29, 1256.09, 283.11, 0.000, 0.000, 0.000, 20:01:49.860, 1582468309860
36, 2248.83, 1221.29, 1163.77, 193.86, 0.000, 0.000, 0.000, 20:01:49.860, 1582468309860
37, 2193.77, 1360.36, 1211.19, 215.29, 0.000, 0.000, 0.000, 20:01:49.876, 1582468309876
38, 2238.78, 1476.68, 1261.02, 280.22, 0.000, 0.000, 0.000, 20:01:49.876, 1582468309876
39, 2375.09, 1479.95, 1287.62, 284.22, 0.000, 0.000, 0.000, 20:01:49.876, 1582468309876
40, 2425.90, 1507.78, 1321.55, 303.38, 0.000, 0.000, 0.000, 20:01:49.876, 1582468309876
41, 2415.75, 1445.48, 1318.37, 277.51, 0.000, 0.000, 0.000, 20:01:49.890, 1582468309890
42, 2413.53, 1587.61, 1347.81, 327.33, 0.000, 0.000, 0.000, 20:01:49.890, 1582468309890
43, 2423.51, 1525.73, 1329.05, 324.87, 0.000, 0.000, 0.000, 20:01:49.906, 1582468309906
44, 2409.78, 1438.84, 1301.58, 314.20, 0.000, 0.000, 0.000, 20:01:49.906, 1582468309906
45, 2367.94, 1490.98, 1319.60, 307.83, 0.000, 0.000, 0.000, 20:01:49.906, 1582468309906
46, 2344.70, 1509.09, 1301.96, 303.62, 0.000, 0.000, 0.000, 20:01:49.906, 1582468309906
47, 2346.95, 1546.42, 1306.99, 335.88, 0.000, 0.000, 0.000, 20:01:49.920, 1582468309920
48, 2304.54, 1598.04, 1316.38, 343.41, 0.000, 0.000, 0.000, 20:01:49.920, 1582468309920
49, 2397.47, 1581.41, 1332.10, 331.79, 0.000, 0.000, 0.000, 20:01:49.936, 1582468309936
50, 2425.13, 1538.40, 1327.59, 371.45, 0.000, 0.000, 0.000, 20:01:49.936, 1582468309936
51, 2414.90, 1489.67, 1295.36, 326.07, 0.000, 0.000, 0.000, 20:01:49.936, 1582468309936
52, 2368.46, 1601.46, 1330.56, 368.68, 0.000, 0.000, 0.000, 20:01:49.936, 1582468309936
53, 2374.27, 1578.78, 1344.10, 338.15, 0.000, 0.000, 0.000, 20:01:49.950, 1582468309950
54, 2347.91, 1588.23, 1329.64, 351.95, 0.000, 0.000, 0.000, 20:01:49.950, 1582468309950
55, 2292.30, 1551.57, 1298.07, 366.37, 0.000, 0.000, 0.000, 20:01:49.966, 1582468309966
56, 2221.01, 1606.92, 1292.98, 345.74, 0.000, 0.000, 0.000, 20:01:49.966, 1582468309966
57, 2322.40, 1626.24, 1341.14, 370.29, 0.000, 0.000, 0.000, 20:01:49.966, 1582468309966
58, 2378.07, 1531.46, 1307.52, 325.36, 0.000, 0.000, 0.000, 20:01:49.966, 1582468309966
59, 2380.28, 1656.61, 1357.15, 368.46, 0.000, 0.000, 0.000, 20:01:49.980, 1582468309980
60, 2360.81, 1658.78, 1360.76, 369.66, 0.000, 0.000, 0.000, 20:01:49.980, 1582468309980
61, 2408.95, 1498.69, 1334.74, 334.72, 0.000, 0.000, 0.000, 20:01:49.996, 1582468309996
62, 2453.54, 1605.69, 1374.60, 386.24, 0.000, 0.000, 0.000, 20:01:49.996, 1582468309996
63, 2432.40, 1616.81, 1355.29, 353.96, 0.000, 0.000, 0.000, 20:01:49.996, 1582468309996
64, 2453.39, 1556.51, 1356.77, 353.33, 0.000, 0.000, 0.000, 20:01:49.996, 1582468309996
65, 2482.99, 1558.97, 1379.85, 346.17, 0.000, 0.000, 0.000, 20:01:50.010, 1582468310010
66, 2486.29, 1574.24, 1378.53, 354.05, 0.000, 0.000, 0.000, 20:01:50.010, 1582468310010
67, 2494.05, 1620.47, 1381.70, 370.82, 0.000, 0.000, 0.000, 20:01:50.026, 1582468310026
68, 2516.14, 1676.84, 1421.43, 376.38, 0.000, 0.000, 0.000, 20:01:50.026, 1582468310026
69, 2557.52, 1522.04, 1376.21, 344.40, 0.000, 0.000, 0.000, 20:01:50.026, 1582468310026
70, 2575.54, 1591.86, 1395.79, 365.65, 0.000, 0.000, 0.000, 20:01:50.026, 1582468310026
71, 2617.85, 1696.80, 1405.87, 366.95, 0.000, 0.000, 0.000, 20:01:50.040, 1582468310040
72, 2571.77, 1588.90, 1366.18, 351.31, 0.000, 0.000, 0.000, 20:01:50.040, 1582468310040
73, 2596.23, 1548.59, 1407.43, 361.95, 0.000, 0.000, 0.000, 20:01:50.056, 1582468310056
74, 2589.78, 1558.25, 1401.31, 378.21, 0.000, 0.000, 0.000, 20:01:50.056, 1582468310056
75, 2578.39, 1594.13, 1377.42, 346.61, 0.000, 0.000, 0.000, 20:01:50.056, 1582468310056
76, 2498.74, 1562.23, 1389.59, 325.07, 0.000, 0.000, 0.000, 20:01:50.056, 1582468310056
77, 2623.02, 1617.76, 1499.60, 368.51, 0.000, 0.000, 0.000, 20:01:50.070, 1582468310070
78, 2661.08, 1622.62, 1453.55, 380.92, 0.000, 0.000, 0.000, 20:01:50.070, 1582468310070
79, 2740.46, 1562.90, 1406.49, 364.69, 0.000, 0.000, 0.000, 20:01:50.086, 1582468310086
80, 2775.81, 1563.89, 1460.46, 353.92, 0.000, 0.000, 0.000, 20:01:50.086, 1582468310086
81, 2962.43, 1568.29, 1569.33, 362.48, 0.000, 0.000, 0.000, 20:01:50.086, 1582468310086
82, 3045.27, 1568.56, 1541.31, 374.13, 0.000, 0.000, 0.000, 20:01:50.086, 1582468310086
83, 3048.67, 1607.95, 1514.70, 374.54, 0.000, 0.000, 0.000, 20:01:50.100, 1582468310100
84, 3020.08, 1629.06, 1567.79, 368.23, 0.000, 0.000, 0.000, 20:01:50.100, 1582468310100
85, 3181.08, 1692.11, 1666.40, 408.41, 0.000, 0.000, 0.000, 20:01:50.116, 1582468310116
86, 3231.68, 1630.16, 1609.04, 426.08, 0.000, 0.000, 0.000, 20:01:50.116, 1582468310116
87, 3229.04, 1623.97, 1574.07, 389.30, 0.000, 0.000, 0.000, 20:01:50.116, 1582468310116
88, 3167.96, 1500.52, 1566.16, 321.41, 0.000, 0.000, 0.000, 20:01:50.116, 1582468310116
89, 3195.63, 1592.38, 1637.59, 374.83, 0.000, 0.000, 0.000, 20:01:50.130, 1582468310130
90, 3284.50, 1563.18, 1602.13, 382.16, 0.000, 0.000, 0.000, 20:01:50.130, 1582468310130
91, 3265.31, 1625.34, 1562.28, 379.00, 0.000, 0.000, 0.000, 20:01:50.146, 1582468310146
92, 3278.66, 1603.13, 1603.01, 370.77, 0.000, 0.000, 0.000, 20:01:50.146, 1582468310146
93, 3328.11, 1582.12, 1646.98, 382.73, 0.000, 0.000, 0.000, 20:01:50.146, 1582468310146
94, 3371.64, 1580.79, 1604.46, 370.64, 0.000, 0.000, 0.000, 20:01:50.146, 1582468310146
95, 3388.56, 1621.93, 1583.63, 393.30, 0.000, 0.000, 0.000, 20:01:50.160, 1582468310160
96, 3401.02, 1615.80, 1571.80, 377.66, 0.000, 0.000, 0.000, 20:01:50.160, 1582468310160
97, 3462.24, 1627.56, 1548.92, 407.74, 0.000, 0.000, 0.000, 20:01:50.176, 1582468310176
98, 3454.06, 1628.98, 1488.72, 386.58, 0.000, 0.000, 0.000, 20:01:50.176, 1582468310176
99, 3480.36, 1623.59, 1440.65, 379.44, 0.000, 0.000, 0.000, 20:01:50.176, 1582468310176
100, 3463.15, 1620.21, 1467.68, 377.09, 0.000, 0.000, 0.000, 20:01:50.176, 1582468310176
101, 3459.24, 1586.21, 1497.62, 379.20, 0.000, 0.000, 0.000, 20:01:50.190, 1582468310190
102, 3527.79, 1607.19, 1469.38, 384.71, 0.000, 0.000, 0.000, 20:01:50.190, 1582468310190
103, 3541.80, 1598.26, 1427.41, 372.94, 0.000, 0.000, 0.000, 20:01:50.206, 1582468310206
104, 3562.15, 1577.79, 1486.27, 360.14, 0.000, 0.000, 0.000, 20:01:50.206, 1582468310206
105, 3564.16, 1659.89, 1550.53, 378.02, 0.000, 0.000, 0.000, 20:01:50.206, 1582468310206
106, 3624.84, 1611.47, 1513.50, 415.34, 0.000, 0.000, 0.000, 20:01:50.206, 1582468310206
107, 3638.84, 1592.85, 1453.45, 378.77, 0.000, 0.000, 0.000, 20:01:50.220, 1582468310220
108, 3639.22, 1615.77, 1525.33, 385.22, 0.000, 0.000, 0.000, 20:01:50.220, 1582468310220
109, 3625.97, 1627.73, 1544.29, 380.40, 0.000, 0.000, 0.000, 20:01:50.236, 1582468310236
110, 3681.97, 1585.95, 1495.18, 383.07, 0.000, 0.000, 0.000, 20:01:50.236, 1582468310236
111, 3702.49, 1582.29, 1457.39, 378.12, 0.000, 0.000, 0.000, 20:01:50.236, 1582468310236
112, 3708.32, 1605.14, 1531.82, 369.21, 0.000, 0.000, 0.000, 20:01:50.236, 1582468310236
113, 3719.74, 1607.83, 1563.94, 378.99, 0.000, 0.000, 0.000, 20:01:50.250, 1582468310250
114, 3685.40, 1591.54, 1494.60, 360.74, 0.000, 0.000, 0.000, 20:01:50.250, 1582468310250
115, 3687.07, 1572.24, 1447.43, 367.76, 0.000, 0.000, 0.000, 20:01:50.266, 1582468310266
116, 3670.20, 1561.47, 1506.19, 350.87, 0.000, 0.000, 0.000, 20:01:50.266, 1582468310266
117, 3640.21, 1560.80, 1529.75, 358.66, 0.000, 0.000, 0.000, 20:01:50.266, 1582468310266
118, 3651.33, 1583.55, 1483.34, 370.77, 0.000, 0.000, 0.000, 20:01:50.266, 1582468310266
119, 3632.50, 1599.82, 1428.37, 378.43, 0.000, 0.000, 0.000, 20:01:50.280, 1582468310280
120, 3600.73, 1596.21, 1447.29, 371.21, 0.000, 0.000, 0.000, 20:01:50.280, 1582468310280
121, 3560.15, 1591.53, 1441.63, 394.36, 0.000, 0.000, 0.000, 20:01:50.296, 1582468310296
122, 3517.28, 1577.83, 1361.59, 356.35, 0.000, 0.000, 0.000, 20:01:50.296, 1582468310296
123, 3403.18, 1565.24, 1277.72, 331.02, 0.000, 0.000, 0.000, 20:01:50.298, 1582468310298
124, 3277.41, 1567.77, 1325.86, 325.83, 0.000, 0.000, 0.000, 20:01:50.298, 1582468310298
125, 3208.88, 1556.83, 1320.89, 311.97, 0.000, 0.000, 0.000, 20:01:50.310, 1582468310310
126, 3171.16, 1549.70, 1235.54, 305.46, 0.000, 0.000, 0.000, 20:01:50.310, 1582468310310
127, 3087.82, 1522.24, 1154.09, 271.83, 0.000, 0.000, 0.000, 20:01:50.326, 1582468310326
128, 3080.23, 1535.20, 1240.88, 281.58, 0.000, 0.000, 0.000, 20:01:50.326, 1582468310326
129, 3023.57, 1531.69, 1246.92, 280.68, 0.000, 0.000, 0.000, 20:01:50.326, 1582468310326
130, 2941.80, 1525.05, 1132.26, 272.20, 0.000, 0.000, 0.000, 20:01:50.326, 1582468310326
131, 2893.97, 1527.41, 1060.48, 271.49, 0.000, 0.000, 0.000, 20:01:50.340, 1582468310340
132, 2854.03, 1528.72, 1131.90, 286.10, 0.000, 0.000, 0.000, 20:01:50.340, 1582468310340
133, 2791.59, 1510.88, 1145.55, 276.92, 0.000, 0.000, 0.000, 20:01:50.356, 1582468310356
134, 2775.77, 1490.44, 1059.75, 250.31, 0.000, 0.000, 0.000, 20:01:50.356, 1582468310356
135, 2658.85, 1499.00, 963.65, 235.74, 0.000, 0.000, 0.000, 20:01:50.356, 1582468310356
136, 2623.80, 1524.55, 1049.51, 253.88, 0.000, 0.000, 0.000, 20:01:50.356, 1582468310356
137, 2480.51, 1497.92, 1030.42, 241.86, 0.000, 0.000, 0.000, 20:01:50.370, 1582468310370
138, 2171.78, 1505.54, 859.40, 238.52, 0.000, 0.000, 0.000, 20:01:50.370, 1582468310370
139, 2082.87, 1492.40, 776.86, 222.08, 0.000, 0.000, 0.000, 20:01:50.386, 1582468310386
140, 2063.62, 1484.26, 848.39, 210.32, 0.000, 0.000, 0.000, 20:01:50.386, 1582468310386
141, 2025.08, 1502.60, 860.27, 230.00, 0.000, 0.000, 0.000, 20:01:50.386, 1582468310386
142, 1965.86, 1470.54, 756.69, 200.19, 0.000, 0.000, 0.000, 20:01:50.386, 1582468310386
143, 1897.95, 1502.50, 686.29, 222.32, 0.000, 0.000, 0.000, 20:01:50.400, 1582468310400
144, 1852.76, 1485.75, 774.02, 206.58, 0.000, 0.000, 0.000, 20:01:50.400, 1582468310400
145, 1851.60, 1499.14, 804.45, 226.16, 0.000, 0.000, 0.000, 20:01:50.416, 1582468310416
146, 1630.23, 1491.64, 668.66, 215.62, 0.000, 0.000, 0.000, 20:01:50.416, 1582468310416
147, 1557.72, 1510.61, 588.04, 219.11, 0.000, 0.000, 0.000, 20:01:50.416, 1582468310416
148, 1509.09, 1462.99, 674.25, 213.06, 0.000, 0.000, 0.000, 20:01:50.416, 1582468310416
149, 1718.09, 1469.54, 753.29, 223.95, 0.000, 0.000, 0.000, 20:01:50.430, 1582468310430
150, 1793.98, 1472.19, 685.06, 224.56, 0.000, 0.000, 0.000, 20:01:50.430, 1582468310430
151, 1932.73, 1471.56, 651.21, 244.42, 0.000, 0.000, 0.000, 20:01:50.446, 1582468310446
152, 1928.66, 1494.48, 773.84, 259.78, 0.000, 0.000, 0.000, 20:01:50.446, 1582468310446
153, 2100.87, 1484.29, 836.39, 282.45, 0.000, 0.000, 0.000, 20:01:50.446, 1582468310446
154, 2116.14, 1485.38, 745.81, 275.96, 0.000, 0.000, 0.000, 20:01:50.446, 1582468310446
155, 2073.91, 1509.37, 659.05, 286.09, 0.000, 0.000, 0.000, 20:01:50.460, 1582468310460
156, 2084.70, 1474.99, 760.13, 266.50, 0.000, 0.000, 0.000, 20:01:50.460, 1582468310460
157, 2061.29, 1467.30, 780.11, 296.23, 0.000, 0.000, 0.000, 20:01:50.476, 1582468310476
158, 2032.95, 1521.41, 693.63, 320.82, 0.000, 0.000, 0.000, 20:01:50.476, 1582468310476
159, 1921.96, 1488.21, 566.31, 297.51, 0.000, 0.000, 0.000, 20:01:50.476, 1582468310476
160, 1824.62, 1504.64, 679.97, 322.52, 0.000, 0.000, 0.000, 20:01:50.476, 1582468310476
161, 1673.78, 1489.47, 663.14, 324.68, 0.000, 0.000, 0.000, 20:01:50.490, 1582468310490
162, 1326.19, 1499.81, 472.19, 325.13, 0.000, 0.000, 0.000, 20:01:50.490, 1582468310490
163, 1082.40, 1498.70, 318.99, 276.35, 0.000, 0.000, 0.000, 20:01:50.506, 1582468310506
164, 819.41, 1481.11, 381.66, 270.26, 0.000, 0.000, 0.000, 20:01:50.506, 1582468310506
165, 549.53, 1458.45, 330.60, 270.70, 0.000, 0.000, 0.000, 20:01:50.506, 1582468310506
166, 292.89, 1441.99, 173.51, 259.77, 0.000, 0.000, 0.000, 20:01:50.506, 1582468310506
167, 224.14, 1476.72, 108.50, 275.28, 0.000, 0.000, 0.000, 20:01:50.520, 1582468310520
168, 199.75, 1447.06, 212.07, 250.13, 0.000, 0.000, 0.000, 20:01:50.520, 1582468310520
169, 164.52, 1454.02, 248.91, 284.03, 0.000, 0.000, 0.000, 20:01:50.536, 1582468310536
170, 122.75, 1463.90, 151.39, 277.62, 0.000, 0.000, 0.000, 20:01:50.536, 1582468310536
171, 11.49, 1433.95, 53.23, 261.40, 0.000, 0.000, 0.000, 20:01:50.536, 1582468310536
172, -81.98, 1452.82, 189.18, 291.99, 0.000, 0.000, 0.000, 20:01:50.536, 1582468310536
173, -528.32, 1414.06, 75.14, 247.65, 0.000, 0.000, 0.000, 20:01:50.550, 1582468310550
174, -1006.96, 1445.91, -144.79, 241.26, 0.000, 0.000, 0.000, 20:01:50.550, 1582468310550
175, -1260.25, 1448.74, -284.80, 214.93, 0.000, 0.000, 0.000, 20:01:50.566, 1582468310566
176, -1522.00, 1387.24, -217.42, 191.83, 0.000, 0.000, 0.000, 20:01:50.566, 1582468310566
177, -1704.57, 1367.36, -234.17, 191.75, 0.000, 0.000, 0.000, 20:01:50.566, 1582468310566
178, -1795.25, 1360.92, -898.48, 129.58, 0.000, 0.000, 0.000, 20:01:50.566, 1582468310566
179, -2527.47, 1372.36, -1183.73, 65.79, 0.000, 0.000, 0.000, 20:01:50.598, 1582468310598
180, -3068.23, 1336.59, -1211.89, 21.72, 0.000, 0.000, 0.000, 20:01:50.598, 1582468310598
181, -3182.57, 1205.44, -2042.58, -100.54, 0.000, 0.000, 0.000, 20:01:50.598, 1582468310598
182, -3816.68, 1037.69, -2483.67, -458.95, 0.000, 0.000, 0.000, 20:01:50.598, 1582468310598
183, -3868.78, 1052.57, -2604.24, -532.72, 0.000, 0.000, 0.000, 20:01:50.611, 1582468310611
184, -3915.91, 1001.59, -2458.34, -593.24, 0.000, 0.000, 0.000, 20:01:50.611, 1582468310611
185, -4341.71, 945.68, -2553.13, -620.03, 0.000, 0.000, 0.000, 20:01:50.611, 1582468310611
186, -4632.31, 944.87, -2862.24, -643.52, 0.000, 0.000, 0.000, 20:01:50.611, 1582468310611
187, -4785.73, 918.59, -3065.35, -684.04, 0.000, 0.000, 0.000, 20:01:50.626, 1582468310626
188, -4641.27, 945.81, -2868.29, -690.49, 0.000, 0.000, 0.000, 20:01:50.626, 1582468310626
189, -4749.92, 949.43, -2886.70, -680.28, 0.000, 0.000, 0.000, 20:01:50.626, 1582468310626
190, -4668.10, 901.57, -2988.22, -724.51, 0.000, 0.000, 0.000, 20:01:50.626, 1582468310626
191, -4594.88, 990.03, -3016.61, -684.33, 0.000, 0.000, 0.000, 20:01:50.640, 1582468310640
192, -4468.99, 961.47, -2843.99, -683.42, 0.000, 0.000, 0.000, 20:01:50.640, 1582468310640
193, -4207.53, 979.75, -2601.00, -672.15, 0.000, 0.000, 0.000, 20:01:50.656, 1582468310656
194, -4034.24, 1035.37, -2388.56, -651.64, 0.000, 0.000, 0.000, 20:01:50.656, 1582468310656
195, -3870.28, 1006.32, -2706.22, -683.68, 0.000, 0.000, 0.000, 20:01:50.656, 1582468310656
196, -3601.31, 1025.06, -2483.53, -680.33, 0.000, 0.000, 0.000, 20:01:50.656, 1582468310656
197, -3423.55, 945.06, -2420.64, -664.97, 0.000, 0.000, 0.000, 20:01:50.670, 1582468310670
198, -3389.76, 943.74, -2526.54, -693.38, 0.000, 0.000, 0.000, 20:01:50.670, 1582468310670
199, -3310.66, 966.93, -2591.16, -706.00, 0.000, 0.000, 0.000, 20:01:50.686, 1582468310686
200, -3035.03, 946.08, -2339.73, -697.92, 0.000, 0.000, 0.000, 20:01:50.686, 1582468310686
0, -11679.75, 960.69, -3242.47, -677.13, 0.000, 0.000, 0.000, 20:01:50.686, 1582468310686
1, -12285.60, 866.52, -3561.22, -773.00, 0.000, 0.000, 0.000, 20:01:50.701, 1582468310701
2, -12801.43, 765.46, -4056.35, -862.75, 0.000, 0.000, 0.000, 20:01:50.701, 1582468310701
3, -13154.32, 708.12, -3979.96, -941.17, 0.000, 0.000, 0.000, 20:01:50.701, 1582468310701
4, -13309.22, 713.80, -4008.51, -949.02, 0.000, 0.000, 0.000, 20:01:50.701, 1582468310701
5, -13478.07, 762.40, -4160.48, -978.97, 0.000, 0.000, 0.000, 20:01:50.715, 1582468310715
6, -13373.92, 659.85, -4244.74, -1021.68, 0.000, 0.000, 0.000, 20:01:50.715, 1582468310715
7, -13005.99, 708.50, -3930.97, -995.11, 0.000, 0.000, 0.000, 20:01:50.731, 1582468310731
8, -12688.64, 672.31, -3818.82, -962.21, 0.000, 0.000, 0.000, 20:01:50.731, 1582468310731
9, -12486.24, 709.25, -3872.75, -973.36, 0.000, 0.000, 0.000, 20:01:50.731, 1582468310731
10, -12266.59, 736.23, -3887.67, -940.59, 0.000, 0.000, 0.000, 20:01:50.731, 1582468310731
11, -11931.55, 747.20, -3591.78, -920.75, 0.000, 0.000, 0.000, 20:01:50.745, 1582468310745
12, -11554.43, 765.25, -3457.35, -883.48, 0.000, 0.000, 0.000, 20:01:50.745, 1582468310745
13, -11384.01, 729.96, -3510.55, -866.55, 0.000, 0.000, 0.000, 20:01:50.761, 1582468310761
14, -11286.89, 763.47, -3564.46, -846.86, 0.000, 0.000, 0.000, 20:01:50.761, 1582468310761
15, -11152.85, 733.80, -3322.68, -857.34, 0.000, 0.000, 0.000, 20:01:50.761, 1582468310761
16, -11049.26, 791.17, -3259.23, -794.03, 0.000, 0.000, 0.000, 20:01:50.761, 1582468310761
17, -11031.73, 806.34, -3348.23, -786.52, 0.000, 0.000, 0.000, 20:01:50.775, 1582468310775
18, -10898.44, 843.80, -3404.37, -785.10, 0.000, 0.000, 0.000, 20:01:50.775, 1582468310775
19, -10686.02, 868.40, -3110.66, -752.99, 0.000, 0.000, 0.000, 20:01:50.791, 1582468310791
20, -10347.87, 870.70, -3003.81, -712.05, 0.000, 0.000, 0.000, 20:01:50.791, 1582468310791
21, -10119.56, 867.16, -3046.72, -696.94, 0.000, 0.000, 0.000, 20:01:50.791, 1582468310791
22, -9888.31, 891.16, -3059.30, -660.52, 0.000, 0.000, 0.000, 20:01:50.791, 1582468310791
23, -9530.39, 1000.88, -2726.20, -627.37, 0.000, 0.000, 0.000, 20:01:50.805, 1582468310805
24, -9350.57, 928.96, -2674.01, -572.95, 0.000, 0.000, 0.000, 20:01:50.805, 1582468310805
25, -9241.28, 927.48, -2750.20, -594.99, 0.000, 0.000, 0.000, 20:01:50.821, 1582468310821
26, -9043.65, 936.07, -2773.18, -586.29, 0.000, 0.000, 0.000, 20:01:50.821, 1582468310821
27, -8702.79, 996.05, -2448.83, -540.16, 0.000, 0.000, 0.000, 20:01:50.821, 1582468310821
28, -8406.96, 1018.79, -2344.58, -511.95, 0.000, 0.000, 0.000, 20:01:50.821, 1582468310821
29, -8223.53, 1063.12, -2392.54, -450.97, 0.000, 0.000, 0.000, 20:01:50.835, 1582468310835
30, -8128.61, 1040.58, -2468.85, -480.01, 0.000, 0.000, 0.000, 20:01:50.835, 1582468310835
31, -7869.97, 1072.92, -2161.09, -431.42, 0.000, 0.000, 0.000, 20:01:50.851, 1582468310851
32, -7678.41, 1076.75, -2093.97, -403.16, 0.000, 0.000, 0.000, 20:01:50.851, 1582468310851
33, -7686.75, 1076.31, -2210.81, -419.35, 0.000, 0.000, 0.000, 20:01:50.851, 1582468310851
34, -8578.49, 1059.30, -2551.41, -469.26, 0.000, 0.000, 0.000, 20:01:50.851, 1582468310851
35, -8571.42, 1042.77, -2336.21, -467.49, 0.000, 0.000, 0.000, 20:01:50.865, 1582468310865
36, -8258.84, 1048.46, -2239.22, -453.00, 0.000, 0.000, 0.000, 20:01:50.865, 1582468310865
37, -8090.16, 1066.52, -2299.38, -432.25, 0.000, 0.000, 0.000, 20:01:50.881, 1582468310881
38, -7954.44, 1038.99, -2355.91, -447.86, 0.000, 0.000, 0.000, 20:01:50.881, 1582468310881
39, -7629.02, 1138.88, -2024.61, -409.55, 0.000, 0.000, 0.000, 20:01:50.881, 1582468310881
40, -7395.43, 1124.27, -1951.57, -382.69, 0.000, 0.000, 0.000, 20:01:50.881, 1582468310881
41, -7283.59, 1077.70, -2058.74, -385.27, 0.000, 0.000, 0.000, 20:01:50.895, 1582468310895
42, -7142.29, 1145.42, -2088.71, -354.54, 0.000, 0.000, 0.000, 20:01:50.895, 1582468310895
43, -6924.85, 1046.00, -1846.86, -404.03, 0.000, 0.000, 0.000, 20:01:50.911, 1582468310911
44, -6680.06, 1103.57, -1755.19, -321.57, 0.000, 0.000, 0.000, 20:01:50.911, 1582468310911
45, -6604.46, 1104.23, -1813.70, -346.07, 0.000, 0.000, 0.000, 20:01:50.911, 1582468310911
46, -6551.94, 1157.94, -1861.31, -331.33, 0.000, 0.000, 0.000, 20:01:50.911, 1582468310911
47, -6329.60, 1182.68, -1571.38, -330.11, 0.000, 0.000, 0.000, 20:01:50.941, 1582468310941
48, -6137.18, 1123.21, -1540.14, -303.51, 0.000, 0.000, 0.000, 20:01:50.941, 1582468310941
49, -6023.62, 1140.50, -1618.88, -288.87, 0.000, 0.000, 0.000, 20:01:50.942, 1582468310942
50, -5928.44, 1174.15, -1670.38, -275.32, 0.000, 0.000, 0.000, 20:01:50.942, 1582468310942
51, -5722.10, 1143.71, -1396.75, -283.26, 0.000, 0.000, 0.000, 20:01:50.943, 1582468310943
52, -5507.75, 1195.10, -1322.61, -247.92, 0.000, 0.000, 0.000, 20:01:50.943, 1582468310943
53, -5435.73, 1221.92, -1409.71, -229.15, 0.000, 0.000, 0.000, 20:01:50.955, 1582468310955
54, -5411.38, 1187.00, -1526.53, -250.88, 0.000, 0.000, 0.000, 20:01:50.955, 1582468310955
55, -5125.34, 1200.46, -1202.59, -242.97, 0.000, 0.000, 0.000, 20:01:50.971, 1582468310971
56, -4919.07, 1227.74, -1139.54, -197.78, 0.000, 0.000, 0.000, 20:01:50.971, 1582468310971
57, -4848.86, 1211.14, -1259.69, -209.52, 0.000, 0.000, 0.000, 20:01:50.971, 1582468310971
58, -4760.62, 1220.35, -1322.05, -197.80, 0.000, 0.000, 0.000, 20:01:50.971, 1582468310971
59, -4506.15, 1202.50, -998.51, -214.28, 0.000, 0.000, 0.000, 20:01:50.985, 1582468310985
60, -4257.07, 1220.08, -923.80, -172.51, 0.000, 0.000, 0.000, 20:01:50.985, 1582468310985
61, -4159.57, 1219.04, -991.32, -172.02, 0.000, 0.000, 0.000, 20:01:51.001, 1582468311001
62, -3996.42, 1255.48, -916.63, -115.23, 0.000, 0.000, 0.000, 20:01:51.001, 1582468311001
63, -3729.83, 1249.53, -550.42, -152.13, 0.000, 0.000, 0.000, 20:01:51.001, 1582468311001
64, -3488.59, 1213.71, -455.46, -150.70, 0.000, 0.000, 0.000, 20:01:51.001, 1582468311001
65, -3392.13, 1212.02, -537.81, -132.73, 0.000, 0.000, 0.000, 20:01:51.015, 1582468311015
66, -3193.06, 1273.59, -527.49, -87.46, 0.000, 0.000, 0.000, 20:01:51.015, 1582468311015
67, -2944.17, 1213.28, -152.54, -120.15, 0.000, 0.000, 0.000, 20:01:51.031, 1582468311031
68, -2765.94, 1243.33, 137.91, -74.95, 0.000, 0.000, 0.000, 20:01:51.031, 1582468311031
69, -2731.63, 1280.54, 108.29, -40.87, 0.000, 0.000, 0.000, 20:01:51.031, 1582468311031
70, -2561.11, 1249.30, 59.27, -84.36, 0.000, 0.000, 0.000, 20:01:51.031, 1582468311031
71, -2241.22, 1228.16, 453.55, -65.41, 0.000, 0.000, 0.000, 20:01:51.045, 1582468311045
72, -2004.71, 1236.74, 534.90, -16.33, 0.000, 0.000, 0.000, 20:01:51.045, 1582468311045
73, -1954.05, 1262.80, 527.22, -19.40, 0.000, 0.000, 0.000, 20:01:51.061, 1582468311061
74, -1831.71, 1272.22, 496.33, -25.58, 0.000, 0.000, 0.000, 20:01:51.061, 1582468311061
75, -1509.89, 1218.66, 906.42, -51.68, 0.000, 0.000, 0.000, 20:01:51.061, 1582468311061
76, -983.48, 1265.64, 1090.93, 46.59, 0.000, 0.000, 0.000, 20:01:51.061, 1582468311061
77, -552.77, 1352.33, 1171.01, 203.82, 0.000, 0.000, 0.000, 20:01:51.075, 1582468311075
78, 122.61, 1353.90, 1145.47, 269.10, 0.000, 0.000, 0.000, 20:01:51.075, 1582468311075
79, 287.75, 1377.69, 1404.61, 332.66, 0.000, 0.000, 0.000, 20:01:51.091, 1582468311091
80, 417.45, 1377.84, 1448.95, 334.95, 0.000, 0.000, 0.000, 20:01:51.091, 1582468311091
81, 539.63, 1372.17, 1401.40, 370.06, 0.000, 0.000, 0.000, 20:01:51.091, 1582468311091
82, 639.29, 1363.68, 960.36, 400.46, 0.000, 0.000, 0.000, 20:01:51.091, 1582468311091
83, 896.53, 1370.91, 1347.44, 432.98, 0.000, 0.000, 0.000, 20:01:51.105, 1582468311105
84, 1008.89, 1321.99, 1371.56, 426.11, 0.000, 0.000, 0.000, 20:01:51.105, 1582468311105
85, 1242.65, 1356.85, 1255.77, 413.17, 0.000, 0.000, 0.000, 20:01:51.121, 1582468311121
86, 1561.49, 1353.30, 1179.31, 421.40, 0.000, 0.000, 0.000, 20:01:51.121, 1582468311121
87, 1663.21, 1421.99, 1527.88, 446.98, 0.000, 0.000, 0.000, 20:01:51.121, 1582468311121
88, 1724.88, 1441.05, 1547.70, 489.27, 0.000, 0.000, 0.000, 20:01:51.121, 1582468311121
89, 1617.63, 1443.30, 1380.48, 487.51, 0.000, 0.000, 0.000, 20:01:51.135, 1582468311135
90, 1401.96, 1337.95, 1138.24, 429.47, 0.000, 0.000, 0.000, 20:01:51.135, 1582468311135
91, 1458.84, 1316.40, 1411.20, 417.79, 0.000, 0.000, 0.000, 20:01:51.151, 1582468311151
92, 1445.01, 1324.47, 1391.82, 433.34, 0.000, 0.000, 0.000, 20:01:51.151, 1582468311151
93, 1255.53, 1339.37, 1450.42, 378.42, 0.000, 0.000, 0.000, 20:01:51.152, 1582468311152
94, 1149.89, 1447.76, 1230.34, 387.63, 0.000, 0.000, 0.000, 20:01:51.152, 1582468311152
95, 1184.78, 1368.02, 1433.09, 344.38, 0.000, 0.000, 0.000, 20:01:51.165, 1582468311165
96, 1215.94, 1297.32, 1378.11, 373.29, 0.000, 0.000, 0.000, 20:01:51.165, 1582468311165
97, 1100.76, 1308.28, 1155.42, 328.39, 0.000, 0.000, 0.000, 20:01:51.181, 1582468311181
98, 933.63, 1350.90, 960.02, 328.40, 0.000, 0.000, 0.000, 20:01:51.181, 1582468311181
99, 951.88, 1346.50, 1208.50, 334.82, 0.000, 0.000, 0.000, 20:01:51.181, 1582468311181
100, 938.77, 1369.33, 1179.29, 356.34, 0.000, 0.000, 0.000, 20:01:51.181, 1582468311181
101, 833.19, 1327.15, 936.03, 316.24, 0.000, 0.000, 0.000, 20:01:51.195, 1582468311195
102, 749.72, 1377.10, 756.08, 319.89, 0.000, 0.000, 0.000, 20:01:51.195, 1582468311195
103, 803.26, 1301.25, 1003.79, 297.06, 0.000, 0.000, 0.000, 20:01:51.211, 1582468311211
104, 779.01, 1331.22, 971.79, 316.60, 0.000, 0.000, 0.000, 20:01:51.211, 1582468311211
105, 639.71, 1355.82, 776.86, 311.69, 0.000, 0.000, 0.000, 20:01:51.211, 1582468311211
106, 556.18, 1345.53, 618.33, 288.65, 0.000, 0.000, 0.000, 20:01:51.211, 1582468311211
107, 568.26, 1312.10, 867.70, 265.04, 0.000, 0.000, 0.000, 20:01:51.225, 1582468311225
108, 603.84, 1262.99, 833.62, 267.38, 0.000, 0.000, 0.000, 20:01:51.225, 1582468311225
109, 472.03, 1278.44, 643.47, 250.53, 0.000, 0.000, 0.000, 20:01:51.241, 1582468311241
110, 357.18, 1340.43, 513.24, 294.50, 0.000, 0.000, 0.000, 20:01:51.241, 1582468311241
111, 410.78, 1252.75, 780.54, 234.85, 0.000, 0.000, 0.000, 20:01:51.241, 1582468311241
112, 455.51, 1303.78, 784.62, 260.05, 0.000, 0.000, 0.000, 20:01:51.241, 1582468311241
113, 342.31, 1305.99, 592.69, 228.20, 0.000, 0.000, 0.000, 20:01:51.255, 1582468311255
114, 224.85, 1286.64, 429.04, 188.83, 0.000, 0.000, 0.000, 20:01:51.255, 1582468311255
115, 254.70, 1263.49, 712.94, 195.63, 0.000, 0.000, 0.000, 20:01:51.271, 1582468311271
116, 216.00, 1213.70, 654.42, 156.55, 0.000, 0.000, 0.000, 20:01:51.271, 1582468311271
117, 132.90, 1240.91, 479.00, 148.34, 0.000, 0.000, 0.000, 20:01:51.271, 1582468311271
118, 11.69, 1199.12, 314.39, 117.73, 0.000, 0.000, 0.000, 20:01:51.271, 1582468311271
119, 48.12, 1148.08, 587.58, 87.32, 0.000, 0.000, 0.000, 20:01:51.285, 1582468311285
120, 38.45, 1164.29, 560.36, 94.10, 0.000, 0.000, 0.000, 20:01:51.285, 1582468311285
121, -102.83, 1159.30, 367.43, 55.29, 0.000, 0.000, 0.000, 20:01:51.301, 1582468311301
122, -190.69, 1090.53, 209.99, 22.93, 0.000, 0.000, 0.000, 20:01:51.301, 1582468311301
123, -258.54, 1033.73, 455.12, -5.19, 0.000, 0.000, 0.000, 20:01:51.301, 1582468311301
124, -314.90, 1041.54, 415.64, -7.71, 0.000, 0.000, 0.000, 20:01:51.301, 1582468311301
125, -431.34, 1086.48, 244.20, -2.80, 0.000, 0.000, 0.000, 20:01:51.315, 1582468311315
126, -516.14, 1069.69, 95.84, -9.78, 0.000, 0.000, 0.000, 20:01:51.315, 1582468311315
127, -480.01, 1071.80, 367.56, -25.71, 0.000, 0.000, 0.000, 20:01:51.331, 1582468311331
128, -506.14, 1097.14, 366.53, -1.43, 0.000, 0.000, 0.000, 20:01:51.331, 1582468311331
129, -660.07, 1135.40, 224.32, 3.59, 0.000, 0.000, 0.000, 20:01:51.331, 1582468311331
130, -695.69, 1166.46, 147.69, 17.85, 0.000, 0.000, 0.000, 20:01:51.331, 1582468311331
131, -629.10, 1090.65, 430.13, -7.88, 0.000, 0.000, 0.000, 20:01:51.345, 1582468311345
132, -596.03, 1059.68, 416.49, 0.32, 0.000, 0.000, 0.000, 20:01:51.345, 1582468311345
133, -636.28, 1092.78, 276.73, 15.33, 0.000, 0.000, 0.000, 20:01:51.361, 1582468311361
134, -700.02, 1180.57, 173.21, 39.23, 0.000, 0.000, 0.000, 20:01:51.361, 1582468311361
135, -670.95, 1173.97, 455.93, 48.69, 0.000, 0.000, 0.000, 20:01:51.361, 1582468311361
136, -618.77, 1205.65, 473.91, 67.11, 0.000, 0.000, 0.000, 20:01:51.361, 1582468311361
137, -644.32, 1152.32, 320.26, 56.64, 0.000, 0.000, 0.000, 20:01:51.375, 1582468311375
138, -724.42, 1148.09, 173.61, 43.87, 0.000, 0.000, 0.000, 20:01:51.375, 1582468311375
139, -651.04, 1158.48, 466.99, 63.06, 0.000, 0.000, 0.000, 20:01:51.391, 1582468311391
140, -623.16, 1200.50, 465.75, 93.13, 0.000, 0.000, 0.000, 20:01:51.391, 1582468311391
141, -672.19, 1219.90, 310.83, 91.47, 0.000, 0.000, 0.000, 20:01:51.391, 1582468311391
142, -752.74, 1269.33, 205.08, 121.95, 0.000, 0.000, 0.000, 20:01:51.391, 1582468311391
143, -666.62, 1243.88, 484.81, 89.93, 0.000, 0.000, 0.000, 20:01:51.405, 1582468311405
144, -631.63, 1174.40, 430.88, 88.86, 0.000, 0.000, 0.000, 20:01:51.405, 1582468311405
145, -700.95, 1157.51, 234.38, 87.08, 0.000, 0.000, 0.000, 20:01:51.421, 1582468311421
146, -777.88, 1244.56, 100.51, 119.08, 0.000, 0.000, 0.000, 20:01:51.421, 1582468311421
147, -752.53, 1231.66, 349.50, 76.49, 0.000, 0.000, 0.000, 20:01:51.421, 1582468311421
148, -726.61, 1237.52, 339.67, 114.47, 0.000, 0.000, 0.000, 20:01:51.421, 1582468311421
149, -813.81, 1263.84, 179.99, 112.86, 0.000, 0.000, 0.000, 20:01:51.435, 1582468311435
150, -932.61, 1254.63, 35.96, 123.28, 0.000, 0.000, 0.000, 20:01:51.435, 1582468311435
151, -847.15, 1209.19, 317.33, 66.04, 0.000, 0.000, 0.000, 20:01:51.451, 1582468311451
152, -775.26, 1200.08, 320.39, 94.31, 0.000, 0.000, 0.000, 20:01:51.451, 1582468311451
153, -851.59, 1229.45, 168.12, 106.54, 0.000, 0.000, 0.000, 20:01:51.451, 1582468311451
154, -928.30, 1260.57, 54.35, 113.91, 0.000, 0.000, 0.000, 20:01:51.451, 1582468311451
155, -839.65, 1249.52, 356.33, 92.30, 0.000, 0.000, 0.000, 20:01:51.465, 1582468311465
156, -789.86, 1265.49, 353.82, 127.54, 0.000, 0.000, 0.000, 20:01:51.465, 1582468311465
157, -888.51, 1254.67, 193.62, 124.66, 0.000, 0.000, 0.000, 20:01:51.496, 1582468311496
158, -995.29, 1278.26, 55.97, 119.72, 0.000, 0.000, 0.000, 20:01:51.496, 1582468311496
159, -885.41, 1266.42, 363.71, 104.55, 0.000, 0.000, 0.000, 20:01:51.497, 1582468311497
160, -921.13, 1263.64, 336.72, 117.50, 0.000, 0.000, 0.000, 20:01:51.497, 1582468311497
161, -1023.52, 1300.31, 153.94, 141.50, 0.000, 0.000, 0.000, 20:01:51.498, 1582468311498
162, -1132.54, 1301.94, -13.33, 115.18, 0.000, 0.000, 0.000, 20:01:51.498, 1582468311498
163, -1033.04, 1267.51, 277.47, 108.62, 0.000, 0.000, 0.000, 20:01:51.511, 1582468311511
164, -982.88, 1286.23, 281.90, 132.94, 0.000, 0.000, 0.000, 20:01:51.511, 1582468311511
165, -1074.83, 1292.55, 78.91, 131.29, 0.000, 0.000, 0.000, 20:01:51.511, 1582468311511
166, -1168.29, 1310.77, -96.95, 156.52, 0.000, 0.000, 0.000, 20:01:51.511, 1582468311511
167, -1054.67, 1328.96, 199.16, 118.20, 0.000, 0.000, 0.000, 20:01:51.525, 1582468311525
168, -1042.16, 1273.03, 85.97, 129.54, 0.000, 0.000, 0.000, 20:01:51.525, 1582468311525
169, -1160.02, 1284.02, -152.55, 128.36, 0.000, 0.000, 0.000, 20:01:51.541, 1582468311541
170, -1212.78, 1349.62, -257.35, 149.64, 0.000, 0.000, 0.000, 20:01:51.541, 1582468311541
171, -1134.16, 1269.02, 47.78, 122.00, 0.000, 0.000, 0.000, 20:01:51.541, 1582468311541
172, -1092.62, 1352.77, 69.28, 164.69, 0.000, 0.000, 0.000, 20:01:51.541, 1582468311541
173, -1137.86, 1244.43, -110.50, 120.19, 0.000, 0.000, 0.000, 20:01:51.555, 1582468311555
174, -1178.85, 1308.30, -233.27, 113.86, 0.000, 0.000, 0.000, 20:01:51.555, 1582468311555
175, -1104.88, 1351.36, 57.67, 107.66, 0.000, 0.000, 0.000, 20:01:51.571, 1582468311571
176, -1082.12, 1254.07, 10.96, 101.35, 0.000, 0.000, 0.000, 20:01:51.571, 1582468311571
177, -1142.01, 1265.15, -135.86, 147.90, 0.000, 0.000, 0.000, 20:01:51.571, 1582468311571
178, -1203.52, 1271.61, -279.51, 90.29, 0.000, 0.000, 0.000, 20:01:51.571, 1582468311571
179, -1149.68, 1252.10, 19.77, 45.11, 0.000, 0.000, 0.000, 20:01:51.585, 1582468311585
180, -1093.85, 1269.47, 4.12, 90.12, 0.000, 0.000, 0.000, 20:01:51.585, 1582468311585
181, -1218.12, 1224.48, -189.53, 84.02, 0.000, 0.000, 0.000, 20:01:51.601, 1582468311601
182, -1277.13, 1200.67, -346.55, 56.85, 0.000, 0.000, 0.000, 20:01:51.601, 1582468311601
183, -1234.20, 1140.64, -85.22, 7.36, 0.000, 0.000, 0.000, 20:01:51.601, 1582468311601
184, -1240.73, 1129.19, -141.77, 4.28, 0.000, 0.000, 0.000, 20:01:51.601, 1582468311601
185, -1286.14, 1124.04, -310.91, -23.94, 0.000, 0.000, 0.000, 20:01:51.615, 1582468311615
186, -1406.66, 1132.21, -464.44, -38.32, 0.000, 0.000, 0.000, 20:01:51.615, 1582468311615
187, -1325.93, 1105.16, -155.92, -59.97, 0.000, 0.000, 0.000, 20:01:51.631, 1582468311631
188, -1282.48, 1084.18, -186.80, -38.89, 0.000, 0.000, 0.000, 20:01:51.631, 1582468311631
189, -1384.01, 1075.22, -368.03, -64.89, 0.000, 0.000, 0.000, 20:01:51.631, 1582468311631
190, -1499.09, 1066.25, -513.68, -70.20, 0.000, 0.000, 0.000, 20:01:51.631, 1582468311631
191, -1407.75, 1056.21, -181.82, -90.96, 0.000, 0.000, 0.000, 20:01:51.645, 1582468311645
192, -1375.40, 1055.40, -209.24, -81.07, 0.000, 0.000, 0.000, 20:01:51.645, 1582468311645
193, -1440.57, 1100.73, -343.41, -57.22, 0.000, 0.000, 0.000, 20:01:51.661, 1582468311661
194, -1521.43, 1098.54, -449.95, -42.50, 0.000, 0.000, 0.000, 20:01:51.661, 1582468311661
195, -1405.30, 1080.27, -104.40, -74.88, 0.000, 0.000, 0.000, 20:01:51.661, 1582468311661
196, -1369.78, 1069.23, -106.28, -50.54, 0.000, 0.000, 0.000, 20:01:51.661, 1582468311661
197, -1408.34, 1121.37, -213.45, -15.49, 0.000, 0.000, 0.000, 20:01:51.675, 1582468311675
198, -1467.01, 1138.51, -315.88, -13.80, 0.000, 0.000, 0.000, 20:01:51.675, 1582468311675
199, -1349.82, 1127.53, 33.86, -21.96, 0.000, 0.000, 0.000, 20:01:51.691, 1582468311691
200, -1300.15, 1134.04, 61.45, 14.59, 0.000, 0.000, 0.000, 20:01:51.691, 1582468311691
0, 1615.17, 1186.29, 1047.93, 47.30, 0.000, 0.000, 0.000, 20:01:51.691, 1582468311691
