%OpenBCI Raw EEG Data
%Number of channels = 4
%Sample Rate = 200.0 Hz
%First Column = SampleIndex
%Last Column = Timestamp 
%Other Columns = EEG data in microvolts followed by Accel Data (in G) interleaved with Aux Data
101, 1007.49, 616.01, 966.48, 99.12, 0.000, 0.000, 0.000, 20:59:01.646, 1582471741646
102, 1034.92, 596.59, 1002.50, 154.88, 0.000, 0.000, 0.000, 20:59:01.646, 1582471741646
103, 961.17, 542.23, 934.98, 53.72, 0.000, 0.000, 0.000, 20:59:01.663, 1582471741663
104, 905.05, 535.17, 835.82, 18.19, 0.000, 0.000, 0.000, 20:59:01.663, 1582471741663
105, 1022.35, 622.23, 969.00, 118.99, 0.000, 0.000, 0.000, 20:59:01.664, 1582471741664
106, 1009.35, 579.77, 958.59, 153.32, 0.000, 0.000, 0.000, 20:59:01.664, 1582471741664
107, 918.98, 510.68, 863.23, 43.48, 0.000, 0.000, 0.000, 20:59:01.676, 1582471741676
108, 950.56, 552.97, 889.42, 48.38, 0.000, 0.000, 0.000, 20:59:01.676, 1582471741676
109, 1027.27, 621.97, 991.56, 121.34, 0.000, 0.000, 0.000, 20:59:01.692, 1582471741692
110, 985.44, 567.06, 960.06, 148.12, 0.000, 0.000, 0.000, 20:59:01.692, 1582471741692
111, 909.64, 502.91, 830.98, 37.81, 0.000, 0.000, 0.000, 20:59:01.692, 1582471741692
112, 982.44, 574.54, 900.61, 58.98, 0.000, 0.000, 0.000, 20:59:01.692, 1582471741692
113, 1059.92, 634.08, 1027.46, 139.30, 0.000, 0.000, 0.000, 20:59:01.706, 1582471741706
114, 1004.63, 580.55, 933.64, 148.63, 0.000, 0.000, 0.000, 20:59:01.706, 1582471741706
115, 910.77, 511.21, 826.93, 44.96, 0.000, 0.000, 0.000, 20:59:01.722, 1582471741722
116, 952.68, 554.80, 869.39, 50.74, 0.000, 0.000, 0.000, 20:59:01.722, 1582471741722
117, 1035.72, 622.10, 956.29, 122.09, 0.000, 0.000, 0.000, 20:59:01.722, 1582471741722
118, 1011.45, 584.51, 967.79, 170.91, 0.000, 0.000, 0.000, 20:59:01.722, 1582471741722
119, 923.30, 528.11, 828.28, 59.38, 0.000, 0.000, 0.000, 20:59:01.736, 1582471741736
120, 948.19, 543.72, 890.64, 44.57, 0.000, 0.000, 0.000, 20:59:01.736, 1582471741736
121, 1002.09, 599.17, 933.62, 106.16, 0.000, 0.000, 0.000, 20:59:01.752, 1582471741752
122, 1020.76, 587.21, 952.63, 168.36, 0.000, 0.000, 0.000, 20:59:01.752, 1582471741752
123, 905.56, 507.16, 794.08, 49.26, 0.000, 0.000, 0.000, 20:59:01.752, 1582471741752
124, 926.52, 539.07, 844.17, 43.37, 0.000, 0.000, 0.000, 20:59:01.752, 1582471741752
125, 998.24, 596.75, 939.60, 123.91, 0.000, 0.000, 0.000, 20:59:01.766, 1582471741766
126, 1013.45, 572.24, 942.62, 161.97, 0.000, 0.000, 0.000, 20:59:01.766, 1582471741766
127, 958.16, 532.69, 855.39, 63.84, 0.000, 0.000, 0.000, 20:59:01.782, 1582471741782
128, 953.42, 556.72, 869.09, 67.45, 0.000, 0.000, 0.000, 20:59:01.782, 1582471741782
129, 1026.53, 624.30, 951.33, 124.69, 0.000, 0.000, 0.000, 20:59:01.782, 1582471741782
130, 1019.62, 590.91, 940.56, 173.64, 0.000, 0.000, 0.000, 20:59:01.782, 1582471741782
131, 943.80, 530.26, 832.48, 74.39, 0.000, 0.000, 0.000, 20:59:01.796, 1582471741796
132, 934.90, 542.82, 826.23, 47.07, 0.000, 0.000, 0.000, 20:59:01.796, 1582471741796
133, 1032.33, 614.59, 972.36, 126.66, 0.000, 0.000, 0.000, 20:59:01.812, 1582471741812
134, 986.49, 562.17, 901.82, 146.20, 0.000, 0.000, 0.000, 20:59:01.812, 1582471741812
135, 917.32, 503.37, 832.01, 66.54, 0.000, 0.000, 0.000, 20:59:01.812, 1582471741812
136, 898.58, 509.98, 816.32, 32.20, 0.000, 0.000, 0.000, 20:59:01.812, 1582471741812
137, 981.37, 582.16, 888.50, 95.03, 0.000, 0.000, 0.000, 20:59:01.826, 1582471741826
138, 1022.55, 591.68, 934.67, 165.37, 0.000, 0.000, 0.000, 20:59:01.826, 1582471741826
139, 952.76, 535.40, 841.20, 82.89, 0.000, 0.000, 0.000, 20:59:01.842, 1582471741842
140, 892.85, 506.34, 809.04, 44.59, 0.000, 0.000, 0.000, 20:59:01.842, 1582471741842
141, 1036.26, 609.99, 958.86, 111.36, 0.000, 0.000, 0.000, 20:59:01.842, 1582471741842
142, 986.03, 557.91, 917.92, 149.88, 0.000, 0.000, 0.000, 20:59:01.842, 1582471741842
143, 884.31, 486.77, 767.04, 46.08, 0.000, 0.000, 0.000, 20:59:01.856, 1582471741856
144, 950.58, 543.61, 838.59, 53.68, 0.000, 0.000, 0.000, 20:59:01.856, 1582471741856
145, 987.41, 572.90, 908.96, 100.14, 0.000, 0.000, 0.000, 20:59:01.872, 1582471741872
146, 1021.40, 576.06, 934.45, 166.23, 0.000, 0.000, 0.000, 20:59:01.872, 1582471741872
147, 886.03, 479.63, 754.13, 38.26, 0.000, 0.000, 0.000, 20:59:01.872, 1582471741872
148, 903.50, 503.12, 795.57, 31.05, 0.000, 0.000, 0.000, 20:59:01.872, 1582471741872
149, 1024.16, 601.22, 917.97, 118.34, 0.000, 0.000, 0.000, 20:59:01.886, 1582471741886
150, 1027.50, 587.88, 918.90, 186.05, 0.000, 0.000, 0.000, 20:59:01.886, 1582471741886
151, 893.39, 470.74, 769.91, 47.36, 0.000, 0.000, 0.000, 20:59:01.902, 1582471741902
152, 908.20, 502.89, 795.13, 43.44, 0.000, 0.000, 0.000, 20:59:01.902, 1582471741902
153, 1023.00, 595.32, 946.91, 132.60, 0.000, 0.000, 0.000, 20:59:01.902, 1582471741902
154, 1007.46, 557.07, 927.75, 174.63, 0.000, 0.000, 0.000, 20:59:01.902, 1582471741902
155, 962.24, 531.89, 827.83, 96.15, 0.000, 0.000, 0.000, 20:59:01.916, 1582471741916
156, 954.78, 540.17, 847.67, 69.35, 0.000, 0.000, 0.000, 20:59:01.916, 1582471741916
157, 985.01, 564.68, 890.77, 109.75, 0.000, 0.000, 0.000, 20:59:01.932, 1582471741932
158, 966.34, 527.17, 877.87, 149.10, 0.000, 0.000, 0.000, 20:59:01.932, 1582471741932
159, 921.24, 485.38, 797.60, 60.54, 0.000, 0.000, 0.000, 20:59:01.933, 1582471741933
160, 952.20, 537.09, 837.88, 68.16, 0.000, 0.000, 0.000, 20:59:01.933, 1582471741933
161, 1003.17, 580.35, 913.25, 125.31, 0.000, 0.000, 0.000, 20:59:01.946, 1582471741946
162, 982.56, 534.56, 902.64, 170.78, 0.000, 0.000, 0.000, 20:59:01.946, 1582471741946
163, 917.91, 488.79, 782.87, 71.35, 0.000, 0.000, 0.000, 20:59:01.962, 1582471741962
164, 945.22, 525.55, 824.47, 75.29, 0.000, 0.000, 0.000, 20:59:01.962, 1582471741962
165, 1004.19, 576.22, 911.70, 127.22, 0.000, 0.000, 0.000, 20:59:01.962, 1582471741962
166, 974.09, 534.61, 879.20, 162.24, 0.000, 0.000, 0.000, 20:59:01.962, 1582471741962
167, 906.74, 486.91, 771.47, 67.54, 0.000, 0.000, 0.000, 20:59:01.976, 1582471741976
168, 937.56, 524.25, 819.22, 65.33, 0.000, 0.000, 0.000, 20:59:01.976, 1582471741976
169, 1010.90, 601.94, 871.32, 124.83, 0.000, 0.000, 0.000, 20:59:01.992, 1582471741992
170, 974.26, 549.50, 864.56, 151.39, 0.000, 0.000, 0.000, 20:59:01.992, 1582471741992
171, 916.52, 494.81, 795.26, 73.32, 0.000, 0.000, 0.000, 20:59:01.992, 1582471741992
172, 953.51, 547.52, 827.22, 74.51, 0.000, 0.000, 0.000, 20:59:01.992, 1582471741992
173, 964.17, 566.10, 853.46, 103.36, 0.000, 0.000, 0.000, 20:59:02.006, 1582471742006
174, 973.92, 545.96, 874.63, 165.13, 0.000, 0.000, 0.000, 20:59:02.006, 1582471742006
175, 925.02, 506.66, 792.74, 75.55, 0.000, 0.000, 0.000, 20:59:02.038, 1582471742038
176, 930.41, 530.00, 795.70, 66.81, 0.000, 0.000, 0.000, 20:59:02.038, 1582471742038
177, 1020.09, 606.47, 901.03, 137.25, 0.000, 0.000, 0.000, 20:59:02.038, 1582471742038
178, 972.76, 554.51, 864.21, 165.60, 0.000, 0.000, 0.000, 20:59:02.038, 1582471742038
179, 909.50, 496.69, 790.58, 76.90, 0.000, 0.000, 0.000, 20:59:02.039, 1582471742039
180, 939.18, 527.22, 822.38, 69.65, 0.000, 0.000, 0.000, 20:59:02.039, 1582471742039
181, 1023.18, 606.89, 903.10, 134.24, 0.000, 0.000, 0.000, 20:59:02.052, 1582471742052
182, 1001.03, 574.47, 893.25, 190.97, 0.000, 0.000, 0.000, 20:59:02.052, 1582471742052
183, 907.77, 496.57, 740.51, 76.51, 0.000, 0.000, 0.000, 20:59:02.052, 1582471742052
184, 910.23, 515.69, 768.69, 62.27, 0.000, 0.000, 0.000, 20:59:02.052, 1582471742052
185, 1001.15, 594.27, 899.13, 132.59, 0.000, 0.000, 0.000, 20:59:02.066, 1582471742066
186, 947.74, 537.14, 825.91, 155.34, 0.000, 0.000, 0.000, 20:59:02.066, 1582471742066
187, 909.85, 504.81, 755.81, 78.38, 0.000, 0.000, 0.000, 20:59:02.082, 1582471742082
188, 911.97, 514.56, 757.85, 60.41, 0.000, 0.000, 0.000, 20:59:02.082, 1582471742082
189, 992.19, 596.78, 857.18, 123.03, 0.000, 0.000, 0.000, 20:59:02.082, 1582471742082
190, 989.82, 564.68, 880.28, 179.07, 0.000, 0.000, 0.000, 20:59:02.082, 1582471742082
191, 906.88, 501.54, 755.16, 68.15, 0.000, 0.000, 0.000, 20:59:02.096, 1582471742096
192, 917.99, 524.09, 776.28, 61.15, 0.000, 0.000, 0.000, 20:59:02.096, 1582471742096
193, 1004.21, 602.42, 890.72, 136.81, 0.000, 0.000, 0.000, 20:59:02.112, 1582471742112
194, 982.43, 554.59, 891.54, 175.01, 0.000, 0.000, 0.000, 20:59:02.112, 1582471742112
195, 875.00, 480.54, 725.26, 57.74, 0.000, 0.000, 0.000, 20:59:02.112, 1582471742112
196, 923.24, 529.64, 791.67, 71.02, 0.000, 0.000, 0.000, 20:59:02.112, 1582471742112
197, 1010.63, 593.03, 896.48, 120.78, 0.000, 0.000, 0.000, 20:59:02.126, 1582471742126
198, 983.01, 567.29, 860.12, 171.00, 0.000, 0.000, 0.000, 20:59:02.126, 1582471742126
199, 876.95, 464.45, 733.74, 46.92, 0.000, 0.000, 0.000, 20:59:02.142, 1582471742142
200, 901.31, 502.79, 755.12, 42.32, 0.000, 0.000, 0.000, 20:59:02.142, 1582471742142
0, 981.72, 578.06, 853.66, 116.39, 0.000, 0.000, 0.000, 20:59:02.142, 1582471742142
1, 991.49, 580.02, 866.46, 191.19, 0.000, 0.000, 0.000, 20:59:02.157, 1582471742157
2, 943.79, 520.56, 817.03, 101.61, 0.000, 0.000, 0.000, 20:59:02.157, 1582471742157
3, 912.94, 528.54, 739.59, 60.06, 0.000, 0.000, 0.000, 20:59:02.158, 1582471742158
4, 1005.43, 615.70, 850.79, 126.63, 0.000, 0.000, 0.000, 20:59:02.158, 1582471742158
5, 993.33, 579.39, 878.69, 182.63, 0.000, 0.000, 0.000, 20:59:02.171, 1582471742171
6, 880.96, 481.47, 731.26, 58.74, 0.000, 0.000, 0.000, 20:59:02.171, 1582471742171
7, 929.87, 525.06, 788.17, 63.91, 0.000, 0.000, 0.000, 20:59:02.187, 1582471742187
8, 992.45, 576.27, 885.29, 126.55, 0.000, 0.000, 0.000, 20:59:02.187, 1582471742187
9, 993.25, 573.56, 878.08, 190.30, 0.000, 0.000, 0.000, 20:59:02.187, 1582471742187
10, 892.71, 491.57, 726.30, 64.65, 0.000, 0.000, 0.000, 20:59:02.187, 1582471742187
11, 918.99, 519.53, 765.56, 52.73, 0.000, 0.000, 0.000, 20:59:02.201, 1582471742201
12, 1016.20, 607.49, 897.58, 142.86, 0.000, 0.000, 0.000, 20:59:02.201, 1582471742201
13, 1013.81, 587.82, 894.49, 188.12, 0.000, 0.000, 0.000, 20:59:02.217, 1582471742217
14, 891.60, 495.95, 728.81, 77.68, 0.000, 0.000, 0.000, 20:59:02.217, 1582471742217
15, 930.83, 531.41, 770.66, 74.63, 0.000, 0.000, 0.000, 20:59:02.217, 1582471742217
16, 1004.26, 602.67, 882.93, 135.69, 0.000, 0.000, 0.000, 20:59:02.217, 1582471742217
17, 974.63, 561.55, 859.93, 187.26, 0.000, 0.000, 0.000, 20:59:02.231, 1582471742231
18, 924.85, 515.14, 770.82, 95.35, 0.000, 0.000, 0.000, 20:59:02.231, 1582471742231
19, 907.53, 521.93, 739.60, 65.28, 0.000, 0.000, 0.000, 20:59:02.247, 1582471742247
20, 942.62, 565.04, 804.42, 106.51, 0.000, 0.000, 0.000, 20:59:02.247, 1582471742247
21, 953.95, 542.44, 841.66, 160.59, 0.000, 0.000, 0.000, 20:59:02.247, 1582471742247
22, 917.01, 500.29, 757.14, 75.35, 0.000, 0.000, 0.000, 20:59:02.247, 1582471742247
23, 938.07, 545.94, 772.12, 83.09, 0.000, 0.000, 0.000, 20:59:02.261, 1582471742261
24, 993.50, 590.62, 874.92, 132.71, 0.000, 0.000, 0.000, 20:59:02.261, 1582471742261
25, 1001.01, 578.88, 874.89, 178.23, 0.000, 0.000, 0.000, 20:59:02.277, 1582471742277
26, 924.51, 520.16, 741.36, 90.01, 0.000, 0.000, 0.000, 20:59:02.277, 1582471742277
27, 930.92, 530.39, 773.26, 65.60, 0.000, 0.000, 0.000, 20:59:02.277, 1582471742277
28, 939.46, 559.67, 813.05, 110.36, 0.000, 0.000, 0.000, 20:59:02.277, 1582471742277
29, 978.32, 558.89, 863.33, 180.19, 0.000, 0.000, 0.000, 20:59:02.291, 1582471742291
30, 933.46, 529.95, 762.57, 95.82, 0.000, 0.000, 0.000, 20:59:02.291, 1582471742291
31, 928.52, 537.24, 777.92, 62.31, 0.000, 0.000, 0.000, 20:59:02.307, 1582471742307
32, 968.66, 581.31, 839.85, 124.78, 0.000, 0.000, 0.000, 20:59:02.307, 1582471742307
33, 1002.51, 579.96, 868.23, 198.53, 0.000, 0.000, 0.000, 20:59:02.307, 1582471742307
34, 912.78, 508.18, 758.39, 95.42, 0.000, 0.000, 0.000, 20:59:02.307, 1582471742307
35, 892.97, 504.51, 751.45, 60.34, 0.000, 0.000, 0.000, 20:59:02.321, 1582471742321
36, 978.15, 582.12, 841.03, 122.40, 0.000, 0.000, 0.000, 20:59:02.321, 1582471742321
37, 1007.33, 589.74, 886.28, 203.76, 0.000, 0.000, 0.000, 20:59:02.337, 1582471742337
38, 893.68, 499.91, 720.50, 93.19, 0.000, 0.000, 0.000, 20:59:02.337, 1582471742337
39, 922.06, 535.99, 743.42, 61.50, 0.000, 0.000, 0.000, 20:59:02.352, 1582471742352
40, 974.09, 585.05, 844.71, 119.23, 0.000, 0.000, 0.000, 20:59:02.352, 1582471742352
41, 964.47, 555.04, 850.75, 177.33, 0.000, 0.000, 0.000, 20:59:02.352, 1582471742352
42, 875.46, 479.86, 698.90, 68.68, 0.000, 0.000, 0.000, 20:59:02.352, 1582471742352
43, 936.39, 543.33, 771.39, 76.03, 0.000, 0.000, 0.000, 20:59:02.367, 1582471742367
44, 1004.74, 604.85, 846.14, 128.82, 0.000, 0.000, 0.000, 20:59:02.367, 1582471742367
45, 1009.88, 582.17, 920.33, 211.28, 0.000, 0.000, 0.000, 20:59:02.367, 1582471742367
46, 934.64, 531.51, 757.94, 109.64, 0.000, 0.000, 0.000, 20:59:02.367, 1582471742367
47, 947.69, 555.41, 780.03, 98.97, 0.000, 0.000, 0.000, 20:59:02.381, 1582471742381
48, 998.94, 611.61, 846.51, 142.16, 0.000, 0.000, 0.000, 20:59:02.381, 1582471742381
49, 983.86, 572.70, 874.20, 190.81, 0.000, 0.000, 0.000, 20:59:02.397, 1582471742397
50, 917.64, 520.01, 762.18, 107.13, 0.000, 0.000, 0.000, 20:59:02.397, 1582471742397
51, 920.11, 541.40, 757.25, 83.51, 0.000, 0.000, 0.000, 20:59:02.398, 1582471742398
52, 994.11, 600.78, 828.19, 144.90, 0.000, 0.000, 0.000, 20:59:02.398, 1582471742398
53, 998.48, 593.51, 860.28, 208.93, 0.000, 0.000, 0.000, 20:59:02.411, 1582471742411
54, 926.52, 532.50, 761.01, 120.99, 0.000, 0.000, 0.000, 20:59:02.411, 1582471742411
55, 965.35, 559.15, 824.05, 116.22, 0.000, 0.000, 0.000, 20:59:02.427, 1582471742427
56, 999.97, 621.09, 838.72, 155.16, 0.000, 0.000, 0.000, 20:59:02.427, 1582471742427
57, 950.77, 566.47, 816.02, 175.89, 0.000, 0.000, 0.000, 20:59:02.428, 1582471742428
58, 897.77, 500.74, 732.70, 102.66, 0.000, 0.000, 0.000, 20:59:02.428, 1582471742428
59, 959.80, 551.74, 800.11, 105.68, 0.000, 0.000, 0.000, 20:59:02.441, 1582471742441
60, 969.47, 601.74, 811.41, 140.35, 0.000, 0.000, 0.000, 20:59:02.441, 1582471742441
61, 1012.13, 608.52, 891.48, 223.52, 0.000, 0.000, 0.000, 20:59:02.457, 1582471742457
62, 907.34, 519.69, 748.75, 100.71, 0.000, 0.000, 0.000, 20:59:02.457, 1582471742457
63, 919.79, 536.44, 747.57, 78.03, 0.000, 0.000, 0.000, 20:59:02.457, 1582471742457
64, 971.81, 595.15, 829.29, 127.52, 0.000, 0.000, 0.000, 20:59:02.457, 1582471742457
65, 997.47, 586.03, 861.06, 206.24, 0.000, 0.000, 0.000, 20:59:02.471, 1582471742471
66, 906.51, 515.16, 749.88, 91.97, 0.000, 0.000, 0.000, 20:59:02.471, 1582471742471
67, 939.47, 548.16, 767.26, 86.57, 0.000, 0.000, 0.000, 20:59:02.487, 1582471742487
68, 977.39, 609.67, 828.68, 148.45, 0.000, 0.000, 0.000, 20:59:02.487, 1582471742487
69, 1006.80, 606.36, 866.26, 206.31, 0.000, 0.000, 0.000, 20:59:02.487, 1582471742487
70, 919.67, 527.32, 751.19, 103.05, 0.000, 0.000, 0.000, 20:59:02.487, 1582471742487
71, 913.57, 548.04, 741.34, 79.04, 0.000, 0.000, 0.000, 20:59:02.501, 1582471742501
72, 960.28, 592.88, 806.94, 118.50, 0.000, 0.000, 0.000, 20:59:02.501, 1582471742501
73, 967.29, 577.07, 847.64, 190.89, 0.000, 0.000, 0.000, 20:59:02.517, 1582471742517
74, 918.10, 526.08, 751.19, 109.03, 0.000, 0.000, 0.000, 20:59:02.517, 1582471742517
75, 913.51, 541.35, 734.28, 84.32, 0.000, 0.000, 0.000, 20:59:02.517, 1582471742517
76, 959.21, 592.58, 818.07, 119.28, 0.000, 0.000, 0.000, 20:59:02.517, 1582471742517
77, 1008.89, 594.99, 862.80, 200.42, 0.000, 0.000, 0.000, 20:59:02.531, 1582471742531
78, 913.05, 537.77, 712.88, 96.69, 0.000, 0.000, 0.000, 20:59:02.531, 1582471742531
79, 923.73, 563.31, 760.18, 94.21, 0.000, 0.000, 0.000, 20:59:02.547, 1582471742547
80, 1008.12, 624.48, 864.89, 146.99, 0.000, 0.000, 0.000, 20:59:02.547, 1582471742547
81, 987.87, 589.12, 840.42, 195.10, 0.000, 0.000, 0.000, 20:59:02.547, 1582471742547
82, 874.35, 504.86, 683.68, 78.94, 0.000, 0.000, 0.000, 20:59:02.547, 1582471742547
83, 918.10, 546.48, 740.03, 76.77, 0.000, 0.000, 0.000, 20:59:02.561, 1582471742561
84, 1005.82, 623.93, 866.65, 146.11, 0.000, 0.000, 0.000, 20:59:02.561, 1582471742561
85, 985.36, 596.88, 842.64, 199.41, 0.000, 0.000, 0.000, 20:59:02.577, 1582471742577
86, 962.83, 572.30, 774.96, 126.01, 0.000, 0.000, 0.000, 20:59:02.577, 1582471742577
87, 898.03, 542.40, 725.94, 67.23, 0.000, 0.000, 0.000, 20:59:02.577, 1582471742577
88, 944.77, 584.70, 790.13, 115.81, 0.000, 0.000, 0.000, 20:59:02.577, 1582471742577
89, 1009.81, 617.67, 863.41, 213.88, 0.000, 0.000, 0.000, 20:59:02.591, 1582471742591
90, 941.27, 538.62, 797.08, 120.78, 0.000, 0.000, 0.000, 20:59:02.591, 1582471742591
91, 863.49, 517.34, 666.96, 57.42, 0.000, 0.000, 0.000, 20:59:02.607, 1582471742607
92, 1008.45, 642.46, 819.10, 156.96, 0.000, 0.000, 0.000, 20:59:02.607, 1582471742607
93, 998.42, 609.59, 860.15, 213.27, 0.000, 0.000, 0.000, 20:59:02.607, 1582471742607
94, 888.27, 515.54, 729.73, 99.11, 0.000, 0.000, 0.000, 20:59:02.607, 1582471742607
95, 921.59, 560.42, 752.91, 92.38, 0.000, 0.000, 0.000, 20:59:02.621, 1582471742621
96, 970.81, 607.55, 819.17, 127.65, 0.000, 0.000, 0.000, 20:59:02.621, 1582471742621
97, 1003.27, 605.26, 872.11, 205.86, 0.000, 0.000, 0.000, 20:59:02.637, 1582471742637
98, 899.72, 517.45, 736.60, 96.61, 0.000, 0.000, 0.000, 20:59:02.637, 1582471742637
99, 866.91, 517.79, 673.88, 51.77, 0.000, 0.000, 0.000, 20:59:02.637, 1582471742637
100, 1019.43, 641.90, 856.83, 147.77, 0.000, 0.000, 0.000, 20:59:02.637, 1582471742637
101, 1015.68, 629.45, 866.10, 208.52, 0.000, 0.000, 0.000, 20:59:02.667, 1582471742667
102, 870.76, 500.36, 673.53, 56.94, 0.000, 0.000, 0.000, 20:59:02.667, 1582471742667
103, 866.71, 513.57, 662.47, 33.63, 0.000, 0.000, 0.000, 20:59:02.668, 1582471742668
104, 859.12, 508.82, 706.24, 42.16, 0.000, 0.000, 0.000, 20:59:02.668, 1582471742668
105, 869.72, 495.49, 738.94, 98.79, 0.000, 0.000, 0.000, 20:59:02.669, 1582471742669
106, 830.14, 463.80, 653.27, 24.30, 0.000, 0.000, 0.000, 20:59:02.669, 1582471742669
107, 795.66, 439.23, 605.97, -27.63, 0.000, 0.000, 0.000, 20:59:02.681, 1582471742681
108, 781.47, 428.69, 630.84, -36.66, 0.000, 0.000, 0.000, 20:59:02.681, 1582471742681
109, 788.44, 436.78, 605.80, 21.36, 0.000, 0.000, 0.000, 20:59:02.697, 1582471742697
110, 766.24, 410.39, 557.66, -39.22, 0.000, 0.000, 0.000, 20:59:02.697, 1582471742697
111, 722.55, 389.11, 546.12, -76.99, 0.000, 0.000, 0.000, 20:59:02.697, 1582471742697
112, 841.05, 484.35, 677.72, 2.63, 0.000, 0.000, 0.000, 20:59:02.697, 1582471742697
113, 853.37, 472.06, 727.98, 61.99, 0.000, 0.000, 0.000, 20:59:02.711, 1582471742711
114, 760.58, 416.25, 558.84, -25.51, 0.000, 0.000, 0.000, 20:59:02.711, 1582471742711
115, 784.01, 448.57, 585.73, -29.59, 0.000, 0.000, 0.000, 20:59:02.727, 1582471742727
116, 866.29, 519.68, 697.32, 45.43, 0.000, 0.000, 0.000, 20:59:02.727, 1582471742727
117, 870.93, 504.59, 723.91, 94.98, 0.000, 0.000, 0.000, 20:59:02.727, 1582471742727
118, 831.72, 467.34, 637.07, 41.80, 0.000, 0.000, 0.000, 20:59:02.727, 1582471742727
119, 815.71, 475.75, 614.87, 5.89, 0.000, 0.000, 0.000, 20:59:02.741, 1582471742741
120, 824.72, 494.52, 649.60, 19.26, 0.000, 0.000, 0.000, 20:59:02.741, 1582471742741
121, 950.86, 562.15, 798.08, 146.26, 0.000, 0.000, 0.000, 20:59:02.757, 1582471742757
122, 834.57, 479.17, 629.27, 40.93, 0.000, 0.000, 0.000, 20:59:02.757, 1582471742757
123, 847.34, 505.71, 656.87, 30.78, 0.000, 0.000, 0.000, 20:59:02.757, 1582471742757
124, 888.46, 557.62, 709.47, 79.47, 0.000, 0.000, 0.000, 20:59:02.757, 1582471742757
125, 923.20, 574.36, 746.28, 160.27, 0.000, 0.000, 0.000, 20:59:02.771, 1582471742771
126, 780.78, 440.31, 592.64, 19.00, 0.000, 0.000, 0.000, 20:59:02.771, 1582471742771
127, 814.19, 488.85, 615.31, 24.03, 0.000, 0.000, 0.000, 20:59:02.787, 1582471742787
128, 915.13, 585.98, 746.43, 103.27, 0.000, 0.000, 0.000, 20:59:02.787, 1582471742787
129, 988.15, 621.03, 816.63, 191.41, 0.000, 0.000, 0.000, 20:59:02.787, 1582471742787
130, 825.29, 494.22, 620.98, 52.65, 0.000, 0.000, 0.000, 20:59:02.787, 1582471742787
131, 894.69, 554.84, 694.18, 63.59, 0.000, 0.000, 0.000, 20:59:02.801, 1582471742801
132, 960.29, 621.50, 772.55, 127.81, 0.000, 0.000, 0.000, 20:59:02.801, 1582471742801
133, 925.77, 586.36, 762.44, 170.66, 0.000, 0.000, 0.000, 20:59:02.817, 1582471742817
134, 845.17, 511.22, 637.89, 66.96, 0.000, 0.000, 0.000, 20:59:02.817, 1582471742817
135, 845.93, 535.59, 623.46, 41.57, 0.000, 0.000, 0.000, 20:59:02.817, 1582471742817
136, 910.37, 580.37, 744.64, 96.85, 0.000, 0.000, 0.000, 20:59:02.817, 1582471742817
137, 931.11, 589.18, 786.57, 175.71, 0.000, 0.000, 0.000, 20:59:02.831, 1582471742831
138, 872.10, 530.81, 672.32, 83.76, 0.000, 0.000, 0.000, 20:59:02.831, 1582471742831
139, 910.01, 573.70, 715.93, 88.44, 0.000, 0.000, 0.000, 20:59:02.847, 1582471742847
140, 894.02, 582.64, 699.78, 90.85, 0.000, 0.000, 0.000, 20:59:02.847, 1582471742847
141, 967.10, 601.47, 829.23, 182.10, 0.000, 0.000, 0.000, 20:59:02.847, 1582471742847
142, 843.25, 520.79, 639.65, 66.82, 0.000, 0.000, 0.000, 20:59:02.847, 1582471742847
143, 847.81, 526.95, 630.36, 42.03, 0.000, 0.000, 0.000, 20:59:02.861, 1582471742861
144, 933.50, 613.77, 742.60, 111.99, 0.000, 0.000, 0.000, 20:59:02.861, 1582471742861
145, 938.49, 589.23, 768.51, 164.56, 0.000, 0.000, 0.000, 20:59:02.877, 1582471742877
146, 832.75, 505.10, 629.31, 67.90, 0.000, 0.000, 0.000, 20:59:02.877, 1582471742877
147, 849.58, 527.64, 645.81, 41.86, 0.000, 0.000, 0.000, 20:59:02.877, 1582471742877
148, 917.20, 597.27, 717.81, 81.67, 0.000, 0.000, 0.000, 20:59:02.877, 1582471742877
149, 962.90, 609.45, 825.09, 194.93, 0.000, 0.000, 0.000, 20:59:02.908, 1582471742908
150, 875.11, 528.83, 679.91, 103.32, 0.000, 0.000, 0.000, 20:59:02.908, 1582471742908
151, 838.90, 523.68, 628.76, 36.59, 0.000, 0.000, 0.000, 20:59:02.908, 1582471742908
152, 902.34, 581.13, 728.99, 81.89, 0.000, 0.000, 0.000, 20:59:02.908, 1582471742908
153, 952.24, 606.98, 790.87, 182.18, 0.000, 0.000, 0.000, 20:59:02.909, 1582471742909
154, 890.85, 543.98, 693.45, 98.69, 0.000, 0.000, 0.000, 20:59:02.909, 1582471742909
155, 830.24, 516.05, 622.80, 37.46, 0.000, 0.000, 0.000, 20:59:02.921, 1582471742921
156, 915.69, 595.28, 710.59, 96.82, 0.000, 0.000, 0.000, 20:59:02.921, 1582471742921
157, 982.95, 612.31, 824.22, 205.97, 0.000, 0.000, 0.000, 20:59:02.937, 1582471742937
158, 889.31, 546.34, 685.22, 99.30, 0.000, 0.000, 0.000, 20:59:02.937, 1582471742937
159, 834.12, 517.94, 634.86, 41.64, 0.000, 0.000, 0.000, 20:59:02.937, 1582471742937
160, 907.87, 587.31, 721.25, 105.58, 0.000, 0.000, 0.000, 20:59:02.937, 1582471742937
161, 996.80, 627.22, 840.97, 200.52, 0.000, 0.000, 0.000, 20:59:02.951, 1582471742951
162, 853.93, 513.83, 651.83, 77.34, 0.000, 0.000, 0.000, 20:59:02.951, 1582471742951
163, 884.42, 540.34, 707.30, 72.57, 0.000, 0.000, 0.000, 20:59:02.982, 1582471742982
164, 923.34, 585.22, 754.42, 103.32, 0.000, 0.000, 0.000, 20:59:02.982, 1582471742982
165, 979.70, 605.67, 805.45, 185.65, 0.000, 0.000, 0.000, 20:59:02.983, 1582471742983
166, 860.61, 513.61, 649.28, 78.24, 0.000, 0.000, 0.000, 20:59:02.983, 1582471742983
167, 871.78, 530.28, 673.90, 62.07, 0.000, 0.000, 0.000, 20:59:02.984, 1582471742984
168, 930.17, 584.08, 764.69, 110.15, 0.000, 0.000, 0.000, 20:59:02.984, 1582471742984
169, 973.10, 614.14, 782.68, 181.67, 0.000, 0.000, 0.000, 20:59:02.997, 1582471742997
170, 892.00, 532.36, 685.88, 91.90, 0.000, 0.000, 0.000, 20:59:02.997, 1582471742997
171, 862.01, 511.96, 686.20, 47.97, 0.000, 0.000, 0.000, 20:59:02.997, 1582471742997
172, 908.73, 580.12, 724.07, 94.46, 0.000, 0.000, 0.000, 20:59:02.997, 1582471742997
173, 959.06, 596.10, 788.44, 174.03, 0.000, 0.000, 0.000, 20:59:03.011, 1582471743011
174, 891.48, 523.69, 684.32, 88.61, 0.000, 0.000, 0.000, 20:59:03.011, 1582471743011
175, 846.76, 509.62, 643.27, 22.73, 0.000, 0.000, 0.000, 20:59:03.027, 1582471743027
176, 923.68, 575.29, 748.46, 82.11, 0.000, 0.000, 0.000, 20:59:03.027, 1582471743027
177, 978.71, 600.14, 820.08, 175.76, 0.000, 0.000, 0.000, 20:59:03.027, 1582471743027
178, 911.73, 541.07, 729.35, 101.87, 0.000, 0.000, 0.000, 20:59:03.027, 1582471743027
179, 850.36, 511.27, 640.29, 41.56, 0.000, 0.000, 0.000, 20:59:03.041, 1582471743041
180, 908.66, 564.43, 749.89, 92.15, 0.000, 0.000, 0.000, 20:59:03.041, 1582471743041
181, 1034.56, 630.53, 906.29, 213.95, 0.000, 0.000, 0.000, 20:59:03.057, 1582471743057
182, 872.82, 522.75, 646.31, 92.61, 0.000, 0.000, 0.000, 20:59:03.057, 1582471743057
183, 866.47, 518.61, 684.00, 64.66, 0.000, 0.000, 0.000, 20:59:03.057, 1582471743057
184, 917.47, 569.45, 717.76, 74.98, 0.000, 0.000, 0.000, 20:59:03.057, 1582471743057
185, 966.38, 598.36, 798.62, 183.98, 0.000, 0.000, 0.000, 20:59:03.071, 1582471743071
186, 899.66, 528.96, 686.51, 87.22, 0.000, 0.000, 0.000, 20:59:03.071, 1582471743071
187, 903.14, 536.81, 708.33, 70.54, 0.000, 0.000, 0.000, 20:59:03.087, 1582471743087
188, 964.25, 609.13, 767.70, 119.67, 0.000, 0.000, 0.000, 20:59:03.087, 1582471743087
189, 955.42, 585.46, 794.27, 170.54, 0.000, 0.000, 0.000, 20:59:03.088, 1582471743088
190, 906.40, 532.36, 710.23, 108.51, 0.000, 0.000, 0.000, 20:59:03.088, 1582471743088
191, 894.10, 539.56, 686.28, 64.44, 0.000, 0.000, 0.000, 20:59:03.101, 1582471743101
192, 948.92, 590.64, 745.07, 85.75, 0.000, 0.000, 0.000, 20:59:03.101, 1582471743101
193, 999.81, 619.54, 830.62, 187.43, 0.000, 0.000, 0.000, 20:59:03.117, 1582471743117
194, 902.94, 521.34, 732.77, 105.01, 0.000, 0.000, 0.000, 20:59:03.117, 1582471743117
195, 911.53, 527.32, 743.75, 60.90, 0.000, 0.000, 0.000, 20:59:03.117, 1582471743117
196, 950.84, 603.59, 738.79, 109.09, 0.000, 0.000, 0.000, 20:59:03.117, 1582471743117
197, 976.32, 587.69, 820.30, 169.09, 0.000, 0.000, 0.000, 20:59:03.147, 1582471743147
198, 893.10, 503.21, 714.22, 79.34, 0.000, 0.000, 0.000, 20:59:03.147, 1582471743147
199, 910.34, 548.20, 714.55, 69.50, 0.000, 0.000, 0.000, 20:59:03.148, 1582471743148
200, 936.77, 578.52, 744.78, 100.02, 0.000, 0.000, 0.000, 20:59:03.148, 1582471743148
0, 982.59, 585.35, 835.85, 186.84, 0.000, 0.000, 0.000, 20:59:03.149, 1582471743149
1, 908.85, 512.52, 712.83, 86.58, 0.000, 0.000, 0.000, 20:59:03.162, 1582471743162
2, 911.12, 548.91, 702.81, 96.97, 0.000, 0.000, 0.000, 20:59:03.162, 1582471743162
3, 949.60, 579.15, 761.44, 95.88, 0.000, 0.000, 0.000, 20:59:03.162, 1582471743162
4, 1038.45, 606.50, 925.91, 209.94, 0.000, 0.000, 0.000, 20:59:03.162, 1582471743162
5, 893.61, 504.99, 692.00, 82.23, 0.000, 0.000, 0.000, 20:59:03.176, 1582471743176
6, 931.34, 537.20, 734.87, 82.54, 0.000, 0.000, 0.000, 20:59:03.176, 1582471743176
7, 931.87, 572.17, 708.35, 82.52, 0.000, 0.000, 0.000, 20:59:03.192, 1582471743192
8, 1022.39, 616.49, 848.82, 209.23, 0.000, 0.000, 0.000, 20:59:03.192, 1582471743192
9, 970.37, 571.03, 723.70, 136.16, 0.000, 0.000, 0.000, 20:59:03.192, 1582471743192
10, 983.70, 584.37, 761.31, 110.09, 0.000, 0.000, 0.000, 20:59:03.192, 1582471743192
11, 946.46, 569.19, 776.93, 116.88, 0.000, 0.000, 0.000, 20:59:03.223, 1582471743223
12, 1009.71, 589.89, 853.33, 200.02, 0.000, 0.000, 0.000, 20:59:03.223, 1582471743223
13, 919.38, 513.91, 699.37, 114.64, 0.000, 0.000, 0.000, 20:59:03.223, 1582471743223
14, 970.73, 558.25, 747.75, 109.71, 0.000, 0.000, 0.000, 20:59:03.223, 1582471743223
15, 993.49, 600.70, 790.93, 138.97, 0.000, 0.000, 0.000, 20:59:03.224, 1582471743224
16, 1037.50, 613.06, 856.04, 224.13, 0.000, 0.000, 0.000, 20:59:03.224, 1582471743224
17, 947.92, 541.56, 714.53, 138.12, 0.000, 0.000, 0.000, 20:59:03.236, 1582471743236
18, 955.17, 554.69, 721.12, 116.22, 0.000, 0.000, 0.000, 20:59:03.236, 1582471743236
19, 1017.04, 611.29, 808.89, 166.64, 0.000, 0.000, 0.000, 20:59:03.252, 1582471743252
20, 1090.15, 660.82, 868.37, 257.45, 0.000, 0.000, 0.000, 20:59:03.252, 1582471743252
21, 938.18, 521.02, 708.28, 153.53, 0.000, 0.000, 0.000, 20:59:03.252, 1582471743252
22, 926.12, 523.84, 697.96, 93.18, 0.000, 0.000, 0.000, 20:59:03.252, 1582471743252
23, 1011.99, 614.63, 789.33, 188.21, 0.000, 0.000, 0.000, 20:59:03.266, 1582471743266
24, 1017.74, 574.97, 828.26, 221.80, 0.000, 0.000, 0.000, 20:59:03.266, 1582471743266
25, 924.74, 494.64, 709.17, 140.71, 0.000, 0.000, 0.000, 20:59:03.282, 1582471743282
26, 923.37, 502.84, 667.11, 105.31, 0.000, 0.000, 0.000, 20:59:03.282, 1582471743282
27, 1013.52, 599.09, 754.07, 168.65, 0.000, 0.000, 0.000, 20:59:03.282, 1582471743282
28, 1067.72, 619.02, 860.71, 253.58, 0.000, 0.000, 0.000, 20:59:03.282, 1582471743282
29, 904.93, 475.20, 681.42, 132.69, 0.000, 0.000, 0.000, 20:59:03.296, 1582471743296
30, 927.95, 521.61, 679.38, 121.72, 0.000, 0.000, 0.000, 20:59:03.296, 1582471743296
31, 975.79, 549.82, 754.02, 144.55, 0.000, 0.000, 0.000, 20:59:03.312, 1582471743312
32, 1046.39, 598.04, 844.37, 250.38, 0.000, 0.000, 0.000, 20:59:03.312, 1582471743312
33, 959.71, 517.05, 715.81, 175.72, 0.000, 0.000, 0.000, 20:59:03.312, 1582471743312
34, 986.62, 515.63, 759.32, 148.50, 0.000, 0.000, 0.000, 20:59:03.312, 1582471743312
35, 955.06, 524.83, 712.33, 147.04, 0.000, 0.000, 0.000, 20:59:03.326, 1582471743326
36, 1041.21, 588.27, 815.40, 251.22, 0.000, 0.000, 0.000, 20:59:03.326, 1582471743326
37, 937.85, 488.14, 704.47, 164.00, 0.000, 0.000, 0.000, 20:59:03.342, 1582471743342
38, 960.91, 508.37, 721.56, 134.66, 0.000, 0.000, 0.000, 20:59:03.342, 1582471743342
39, 949.61, 506.68, 716.95, 121.04, 0.000, 0.000, 0.000, 20:59:03.342, 1582471743342
40, 1003.49, 518.37, 826.07, 230.04, 0.000, 0.000, 0.000, 20:59:03.342, 1582471743342
41, 908.69, 462.25, 667.31, 136.97, 0.000, 0.000, 0.000, 20:59:03.356, 1582471743356
42, 917.19, 485.07, 664.38, 111.63, 0.000, 0.000, 0.000, 20:59:03.356, 1582471743356
43, 952.95, 517.50, 726.14, 145.71, 0.000, 0.000, 0.000, 20:59:03.372, 1582471743372
44, 1009.24, 552.19, 820.90, 238.96, 0.000, 0.000, 0.000, 20:59:03.372, 1582471743372
45, 890.76, 444.99, 643.19, 125.15, 0.000, 0.000, 0.000, 20:59:03.372, 1582471743372
46, 929.30, 493.09, 679.16, 118.26, 0.000, 0.000, 0.000, 20:59:03.372, 1582471743372
47, 988.28, 572.33, 730.44, 163.61, 0.000, 0.000, 0.000, 20:59:03.386, 1582471743386
48, 1048.15, 589.10, 825.52, 242.41, 0.000, 0.000, 0.000, 20:59:03.386, 1582471743386
49, 933.74, 477.26, 710.76, 146.16, 0.000, 0.000, 0.000, 20:59:03.402, 1582471743402
50, 954.98, 503.52, 724.46, 114.63, 0.000, 0.000, 0.000, 20:59:03.402, 1582471743402
51, 959.12, 525.79, 713.03, 126.28, 0.000, 0.000, 0.000, 20:59:03.402, 1582471743402
52, 970.56, 539.48, 741.16, 208.64, 0.000, 0.000, 0.000, 20:59:03.402, 1582471743402
53, 928.27, 480.70, 715.41, 162.32, 0.000, 0.000, 0.000, 20:59:03.416, 1582471743416
54, 938.40, 487.97, 708.70, 102.96, 0.000, 0.000, 0.000, 20:59:03.416, 1582471743416
55, 956.80, 529.82, 696.92, 119.46, 0.000, 0.000, 0.000, 20:59:03.432, 1582471743432
56, 1012.20, 548.29, 814.27, 220.71, 0.000, 0.000, 0.000, 20:59:03.432, 1582471743432
57, 933.44, 498.66, 698.93, 164.40, 0.000, 0.000, 0.000, 20:59:03.433, 1582471743433
58, 901.62, 473.61, 636.12, 80.39, 0.000, 0.000, 0.000, 20:59:03.433, 1582471743433
59, 979.70, 551.05, 726.77, 142.00, 0.000, 0.000, 0.000, 20:59:03.446, 1582471743446
60, 985.51, 554.90, 770.65, 228.38, 0.000, 0.000, 0.000, 20:59:03.446, 1582471743446
61, 917.61, 490.10, 685.48, 147.51, 0.000, 0.000, 0.000, 20:59:03.462, 1582471743462
62, 874.87, 447.57, 622.72, 64.88, 0.000, 0.000, 0.000, 20:59:03.462, 1582471743462
63, 955.91, 536.68, 706.94, 140.16, 0.000, 0.000, 0.000, 20:59:03.462, 1582471743462
64, 952.46, 520.78, 761.43, 204.26, 0.000, 0.000, 0.000, 20:59:03.462, 1582471743462
65, 904.64, 454.28, 667.84, 123.97, 0.000, 0.000, 0.000, 20:59:03.476, 1582471743476
66, 902.45, 473.65, 652.67, 89.00, 0.000, 0.000, 0.000, 20:59:03.476, 1582471743476
67, 991.70, 544.34, 783.66, 154.90, 0.000, 0.000, 0.000, 20:59:03.492, 1582471743492
68, 982.18, 543.47, 778.16, 206.98, 0.000, 0.000, 0.000, 20:59:03.492, 1582471743492
69, 909.22, 481.42, 677.96, 165.84, 0.000, 0.000, 0.000, 20:59:03.492, 1582471743492
70, 858.93, 447.65, 592.69, 68.20, 0.000, 0.000, 0.000, 20:59:03.492, 1582471743492
71, 969.35, 546.10, 708.05, 137.03, 0.000, 0.000, 0.000, 20:59:03.506, 1582471743506
72, 1034.59, 597.86, 816.56, 256.97, 0.000, 0.000, 0.000, 20:59:03.506, 1582471743506
73, 831.83, 415.86, 576.75, 82.35, 0.000, 0.000, 0.000, 20:59:03.522, 1582471743522
74, 898.37, 468.09, 647.42, 83.06, 0.000, 0.000, 0.000, 20:59:03.522, 1582471743522
75, 954.93, 545.97, 732.98, 144.31, 0.000, 0.000, 0.000, 20:59:03.522, 1582471743522
76, 927.71, 515.40, 728.30, 179.32, 0.000, 0.000, 0.000, 20:59:03.522, 1582471743522
77, 869.04, 445.17, 631.74, 109.42, 0.000, 0.000, 0.000, 20:59:03.536, 1582471743536
78, 854.55, 444.31, 610.28, 68.98, 0.000, 0.000, 0.000, 20:59:03.536, 1582471743536
79, 942.39, 525.32, 705.94, 121.93, 0.000, 0.000, 0.000, 20:59:03.552, 1582471743552
80, 1012.13, 558.47, 839.25, 229.23, 0.000, 0.000, 0.000, 20:59:03.552, 1582471743552
81, 843.66, 435.29, 590.19, 91.94, 0.000, 0.000, 0.000, 20:59:03.552, 1582471743552
82, 900.19, 483.49, 655.61, 103.48, 0.000, 0.000, 0.000, 20:59:03.552, 1582471743552
83, 946.76, 547.12, 717.99, 148.23, 0.000, 0.000, 0.000, 20:59:03.566, 1582471743566
84, 976.08, 552.08, 773.05, 223.99, 0.000, 0.000, 0.000, 20:59:03.566, 1582471743566
85, 865.39, 441.91, 652.97, 123.77, 0.000, 0.000, 0.000, 20:59:03.582, 1582471743582
86, 895.38, 491.77, 644.04, 97.21, 0.000, 0.000, 0.000, 20:59:03.582, 1582471743582
87, 943.53, 555.20, 688.42, 183.64, 0.000, 0.000, 0.000, 20:59:03.582, 1582471743582
88, 944.96, 536.04, 770.84, 255.03, 0.000, 0.000, 0.000, 20:59:03.582, 1582471743582
89, 831.30, 430.06, 606.35, 143.15, 0.000, 0.000, 0.000, 20:59:03.596, 1582471743596
90, 857.85, 473.86, 618.22, 119.74, 0.000, 0.000, 0.000, 20:59:03.596, 1582471743596
91, 903.82, 524.60, 690.29, 169.83, 0.000, 0.000, 0.000, 20:59:03.612, 1582471743612
92, 997.64, 572.89, 810.32, 266.25, 0.000, 0.000, 0.000, 20:59:03.612, 1582471743612
93, 872.82, 483.40, 643.90, 170.19, 0.000, 0.000, 0.000, 20:59:03.612, 1582471743612
94, 887.92, 502.55, 662.07, 142.74, 0.000, 0.000, 0.000, 20:59:03.612, 1582471743612
95, 904.79, 550.64, 664.74, 184.00, 0.000, 0.000, 0.000, 20:59:03.626, 1582471743626
96, 926.66, 554.02, 710.45, 242.88, 0.000, 0.000, 0.000, 20:59:03.626, 1582471743626
97, 901.15, 524.66, 652.20, 192.64, 0.000, 0.000, 0.000, 20:59:03.642, 1582471743642
98, 840.47, 477.10, 614.90, 128.85, 0.000, 0.000, 0.000, 20:59:03.642, 1582471743642
99, 902.88, 558.12, 656.59, 170.71, 0.000, 0.000, 0.000, 20:59:03.642, 1582471743642
100, 963.37, 586.71, 764.35, 258.96, 0.000, 0.000, 0.000, 20:59:03.642, 1582471743642
101, 796.20, 466.61, 535.46, 139.78, 0.000, 0.000, 0.000, 20:59:03.656, 1582471743656
102, 816.71, 498.62, 546.32, 124.10, 0.000, 0.000, 0.000, 20:59:03.656, 1582471743656
103, 864.94, 546.92, 607.61, 164.73, 0.000, 0.000, 0.000, 20:59:03.672, 1582471743672
104, 950.33, 612.28, 730.41, 257.06, 0.000, 0.000, 0.000, 20:59:03.672, 1582471743672
105, 821.59, 505.36, 552.09, 156.57, 0.000, 0.000, 0.000, 20:59:03.672, 1582471743672
106, 797.23, 485.91, 563.60, 127.04, 0.000, 0.000, 0.000, 20:59:03.672, 1582471743672
107, 899.05, 594.72, 690.31, 215.95, 0.000, 0.000, 0.000, 20:59:03.686, 1582471743686
108, 879.96, 572.35, 640.25, 228.73, 0.000, 0.000, 0.000, 20:59:03.686, 1582471743686
109, 812.92, 482.18, 536.85, 143.27, 0.000, 0.000, 0.000, 20:59:03.702, 1582471743702
110, 806.06, 509.29, 540.72, 115.14, 0.000, 0.000, 0.000, 20:59:03.702, 1582471743702
111, 889.76, 596.35, 670.71, 184.59, 0.000, 0.000, 0.000, 20:59:03.702, 1582471743702
112, 911.70, 576.92, 702.82, 239.20, 0.000, 0.000, 0.000, 20:59:03.702, 1582471743702
113, 821.70, 502.56, 521.19, 147.20, 0.000, 0.000, 0.000, 20:59:03.716, 1582471743716
114, 772.55, 477.29, 518.87, 105.51, 0.000, 0.000, 0.000, 20:59:03.716, 1582471743716
115, 823.69, 567.77, 589.21, 167.16, 0.000, 0.000, 0.000, 20:59:03.732, 1582471743732
116, 937.39, 595.95, 722.76, 255.68, 0.000, 0.000, 0.000, 20:59:03.732, 1582471743732
117, 836.10, 491.90, 573.87, 158.84, 0.000, 0.000, 0.000, 20:59:03.732, 1582471743732
118, 795.25, 499.12, 552.24, 122.13, 0.000, 0.000, 0.000, 20:59:03.732, 1582471743732
119, 801.93, 553.98, 577.80, 158.89, 0.000, 0.000, 0.000, 20:59:03.746, 1582471743746
120, 879.97, 558.44, 699.73, 239.37, 0.000, 0.000, 0.000, 20:59:03.746, 1582471743746
121, 860.38, 511.81, 592.61, 159.20, 0.000, 0.000, 0.000, 20:59:03.762, 1582471743762
122, 734.17, 469.09, 470.23, 85.51, 0.000, 0.000, 0.000, 20:59:03.762, 1582471743762
123, 863.09, 603.89, 627.81, 188.55, 0.000, 0.000, 0.000, 20:59:03.777, 1582471743777
124, 894.87, 586.04, 677.41, 235.47, 0.000, 0.000, 0.000, 20:59:03.777, 1582471743777
125, 877.49, 527.84, 598.63, 178.47, 0.000, 0.000, 0.000, 20:59:03.777, 1582471743777
126, 824.70, 529.86, 574.65, 142.57, 0.000, 0.000, 0.000, 20:59:03.777, 1582471743777
127, 825.00, 556.98, 626.48, 168.19, 0.000, 0.000, 0.000, 20:59:03.807, 1582471743807
128, 882.15, 581.86, 680.16, 243.53, 0.000, 0.000, 0.000, 20:59:03.807, 1582471743807
129, 803.92, 506.47, 555.82, 156.41, 0.000, 0.000, 0.000, 20:59:03.808, 1582471743808
130, 822.19, 529.11, 570.83, 130.87, 0.000, 0.000, 0.000, 20:59:03.808, 1582471743808
131, 854.06, 561.71, 628.33, 158.46, 0.000, 0.000, 0.000, 20:59:03.809, 1582471743809
132, 924.59, 613.34, 700.45, 258.30, 0.000, 0.000, 0.000, 20:59:03.809, 1582471743809
133, 827.90, 516.38, 569.89, 170.41, 0.000, 0.000, 0.000, 20:59:03.822, 1582471743822
134, 802.09, 506.42, 553.59, 130.69, 0.000, 0.000, 0.000, 20:59:03.822, 1582471743822
135, 871.20, 582.04, 616.81, 176.36, 0.000, 0.000, 0.000, 20:59:03.822, 1582471743822
136, 914.61, 605.83, 687.70, 255.47, 0.000, 0.000, 0.000, 20:59:03.822, 1582471743822
137, 849.07, 528.16, 599.69, 176.85, 0.000, 0.000, 0.000, 20:59:03.836, 1582471743836
138, 802.68, 510.95, 519.58, 118.81, 0.000, 0.000, 0.000, 20:59:03.836, 1582471743836
139, 832.88, 548.88, 584.53, 149.07, 0.000, 0.000, 0.000, 20:59:03.852, 1582471743852
140, 931.53, 609.64, 705.33, 255.13, 0.000, 0.000, 0.000, 20:59:03.852, 1582471743852
141, 837.10, 533.47, 569.88, 178.80, 0.000, 0.000, 0.000, 20:59:03.852, 1582471743852
142, 754.09, 477.50, 467.80, 104.81, 0.000, 0.000, 0.000, 20:59:03.852, 1582471743852
143, 899.33, 603.42, 627.45, 191.60, 0.000, 0.000, 0.000, 20:59:03.866, 1582471743866
144, 860.78, 560.46, 626.58, 220.39, 0.000, 0.000, 0.000, 20:59:03.866, 1582471743866
145, 802.49, 495.61, 533.10, 142.91, 0.000, 0.000, 0.000, 20:59:03.882, 1582471743882
146, 788.14, 492.38, 535.09, 106.33, 0.000, 0.000, 0.000, 20:59:03.882, 1582471743882
147, 841.19, 551.96, 586.86, 144.11, 0.000, 0.000, 0.000, 20:59:03.882, 1582471743882
148, 907.19, 595.19, 696.30, 243.79, 0.000, 0.000, 0.000, 20:59:03.882, 1582471743882
149, 782.57, 494.62, 528.65, 135.33, 0.000, 0.000, 0.000, 20:59:03.896, 1582471743896
150, 801.33, 516.39, 543.83, 117.14, 0.000, 0.000, 0.000, 20:59:03.896, 1582471743896
151, 878.47, 612.25, 644.84, 177.02, 0.000, 0.000, 0.000, 20:59:03.912, 1582471743912
152, 927.11, 629.96, 683.15, 238.63, 0.000, 0.000, 0.000, 20:59:03.912, 1582471743912
153, 843.41, 515.46, 561.67, 144.97, 0.000, 0.000, 0.000, 20:59:03.912, 1582471743912
154, 823.12, 536.01, 570.68, 121.56, 0.000, 0.000, 0.000, 20:59:03.912, 1582471743912
155, 850.62, 593.22, 627.99, 157.28, 0.000, 0.000, 0.000, 20:59:03.926, 1582471743926
156, 931.39, 622.77, 706.87, 234.59, 0.000, 0.000, 0.000, 20:59:03.926, 1582471743926
157, 909.78, 562.45, 626.67, 175.22, 0.000, 0.000, 0.000, 20:59:03.942, 1582471743942
158, 853.10, 561.59, 575.31, 133.34, 0.000, 0.000, 0.000, 20:59:03.942, 1582471743942
159, 844.14, 590.10, 624.85, 160.91, 0.000, 0.000, 0.000, 20:59:03.942, 1582471743942
160, 902.65, 590.81, 691.70, 224.88, 0.000, 0.000, 0.000, 20:59:03.942, 1582471743942
161, 863.89, 515.56, 586.18, 150.90, 0.000, 0.000, 0.000, 20:59:03.956, 1582471743956
162, 855.06, 560.71, 601.22, 136.42, 0.000, 0.000, 0.000, 20:59:03.956, 1582471743956
163, 854.70, 604.05, 603.94, 176.10, 0.000, 0.000, 0.000, 20:59:03.972, 1582471743972
164, 941.16, 623.30, 736.86, 254.49, 0.000, 0.000, 0.000, 20:59:03.972, 1582471743972
165, 892.14, 534.74, 615.15, 177.57, 0.000, 0.000, 0.000, 20:59:03.972, 1582471743972
166, 808.10, 523.96, 533.00, 118.69, 0.000, 0.000, 0.000, 20:59:03.972, 1582471743972
167, 827.10, 566.48, 599.09, 155.98, 0.000, 0.000, 0.000, 20:59:03.986, 1582471743986
168, 902.38, 595.35, 675.32, 237.45, 0.000, 0.000, 0.000, 20:59:03.986, 1582471743986
169, 905.95, 547.46, 621.99, 169.54, 0.000, 0.000, 0.000, 20:59:04.002, 1582471744002
170, 830.85, 536.61, 583.65, 129.49, 0.000, 0.000, 0.000, 20:59:04.002, 1582471744002
171, 853.98, 592.41, 642.29, 178.12, 0.000, 0.000, 0.000, 20:59:04.017, 1582471744017
172, 950.74, 633.20, 730.83, 260.99, 0.000, 0.000, 0.000, 20:59:04.017, 1582471744017
173, 863.36, 512.45, 589.15, 158.80, 0.000, 0.000, 0.000, 20:59:04.017, 1582471744017
174, 842.05, 531.92, 605.89, 131.64, 0.000, 0.000, 0.000, 20:59:04.017, 1582471744017
175, 869.75, 594.92, 667.84, 177.88, 0.000, 0.000, 0.000, 20:59:04.032, 1582471744032
176, 962.75, 639.48, 727.32, 256.12, 0.000, 0.000, 0.000, 20:59:04.032, 1582471744032
177, 886.79, 519.29, 633.23, 164.05, 0.000, 0.000, 0.000, 20:59:04.033, 1582471744033
178, 812.45, 507.62, 571.58, 112.58, 0.000, 0.000, 0.000, 20:59:04.033, 1582471744033
179, 847.94, 574.05, 644.15, 159.01, 0.000, 0.000, 0.000, 20:59:04.046, 1582471744046
180, 989.30, 651.22, 775.01, 275.61, 0.000, 0.000, 0.000, 20:59:04.046, 1582471744046
181, 881.05, 518.27, 605.35, 149.14, 0.000, 0.000, 0.000, 20:59:04.062, 1582471744062
182, 822.20, 501.79, 580.20, 109.19, 0.000, 0.000, 0.000, 20:59:04.062, 1582471744062
183, 873.53, 572.65, 691.36, 164.01, 0.000, 0.000, 0.000, 20:59:04.062, 1582471744062
184, 893.84, 570.92, 681.50, 210.74, 0.000, 0.000, 0.000, 20:59:04.062, 1582471744062
185, 882.49, 515.74, 605.95, 162.68, 0.000, 0.000, 0.000, 20:59:04.076, 1582471744076
186, 841.28, 516.34, 592.79, 117.66, 0.000, 0.000, 0.000, 20:59:04.076, 1582471744076
187, 864.50, 573.06, 627.96, 154.33, 0.000, 0.000, 0.000, 20:59:04.092, 1582471744092
188, 882.35, 543.97, 689.65, 199.50, 0.000, 0.000, 0.000, 20:59:04.092, 1582471744092
189, 850.05, 468.25, 585.08, 124.05, 0.000, 0.000, 0.000, 20:59:04.093, 1582471744093
190, 814.83, 489.44, 566.12, 95.31, 0.000, 0.000, 0.000, 20:59:04.093, 1582471744093
191, 814.54, 511.39, 622.62, 116.71, 0.000, 0.000, 0.000, 20:59:04.107, 1582471744107
192, 909.38, 543.08, 713.01, 181.79, 0.000, 0.000, 0.000, 20:59:04.107, 1582471744107
193, 798.34, 411.36, 518.16, 64.47, 0.000, 0.000, 0.000, 20:59:04.122, 1582471744122
194, 780.47, 428.06, 555.64, 52.47, 0.000, 0.000, 0.000, 20:59:04.122, 1582471744122
195, 777.85, 463.99, 568.72, 59.42, 0.000, 0.000, 0.000, 20:59:04.122, 1582471744122
196, 792.72, 435.94, 599.23, 81.43, 0.000, 0.000, 0.000, 20:59:04.122, 1582471744122
197, 715.08, 319.25, 448.20, -16.82, 0.000, 0.000, 0.000, 20:59:04.136, 1582471744136
198, 585.64, 255.73, 348.35, -114.20, 0.000, 0.000, 0.000, 20:59:04.136, 1582471744136
199, 638.22, 335.32, 424.31, -61.75, 0.000, 0.000, 0.000, 20:59:04.152, 1582471744152
200, 697.86, 348.89, 509.17, 8.20, 0.000, 0.000, 0.000, 20:59:04.152, 1582471744152
0, 649.61, 244.98, 395.95, -79.61, 0.000, 0.000, 0.000, 20:59:04.152, 1582471744152
1, 586.81, 250.45, 344.59, -123.40, 0.000, 0.000, 0.000, 20:59:04.167, 1582471744167
2, 616.16, 309.32, 417.98, -71.11, 0.000, 0.000, 0.000, 20:59:04.167, 1582471744167
3, 740.53, 371.97, 522.04, 12.89, 0.000, 0.000, 0.000, 20:59:04.167, 1582471744167
4, 625.08, 225.03, 404.00, -86.77, 0.000, 0.000, 0.000, 20:59:04.167, 1582471744167
5, 569.49, 237.81, 339.10, -127.80, 0.000, 0.000, 0.000, 20:59:04.181, 1582471744181
6, 623.57, 300.54, 447.01, -79.52, 0.000, 0.000, 0.000, 20:59:04.181, 1582471744181
7, 723.43, 353.95, 535.05, 13.10, 0.000, 0.000, 0.000, 20:59:04.197, 1582471744197
8, 720.27, 300.78, 473.90, -32.12, 0.000, 0.000, 0.000, 20:59:04.197, 1582471744197
9, 660.50, 306.45, 448.51, -71.00, 0.000, 0.000, 0.000, 20:59:04.197, 1582471744197
10, 677.48, 369.60, 475.26, -22.87, 0.000, 0.000, 0.000, 20:59:04.197, 1582471744197
11, 787.73, 431.63, 590.81, 82.41, 0.000, 0.000, 0.000, 20:59:04.211, 1582471744211
12, 763.77, 356.29, 518.40, 21.95, 0.000, 0.000, 0.000, 20:59:04.211, 1582471744211
13, 750.24, 393.27, 508.11, 8.93, 0.000, 0.000, 0.000, 20:59:04.227, 1582471744227
14, 788.26, 469.04, 588.88, 75.36, 0.000, 0.000, 0.000, 20:59:04.227, 1582471744227
15, 872.81, 478.24, 712.32, 155.26, 0.000, 0.000, 0.000, 20:59:04.227, 1582471744227
16, 871.54, 465.84, 615.01, 123.02, 0.000, 0.000, 0.000, 20:59:04.227, 1582471744227
17, 765.38, 420.16, 545.67, 52.42, 0.000, 0.000, 0.000, 20:59:04.258, 1582471744258
18, 824.75, 491.57, 655.99, 101.00, 0.000, 0.000, 0.000, 20:59:04.258, 1582471744258
19, 953.83, 567.82, 772.98, 218.96, 0.000, 0.000, 0.000, 20:59:04.258, 1582471744258
20, 927.93, 488.26, 685.94, 160.93, 0.000, 0.000, 0.000, 20:59:04.258, 1582471744258
21, 876.44, 507.22, 648.23, 123.12, 0.000, 0.000, 0.000, 20:59:04.259, 1582471744259
22, 878.16, 553.02, 702.98, 166.86, 0.000, 0.000, 0.000, 20:59:04.259, 1582471744259
23, 983.73, 587.40, 824.13, 256.62, 0.000, 0.000, 0.000, 20:59:04.271, 1582471744271
24, 981.35, 541.17, 754.96, 212.24, 0.000, 0.000, 0.000, 20:59:04.271, 1582471744271
25, 937.68, 563.00, 700.48, 180.75, 0.000, 0.000, 0.000, 20:59:04.287, 1582471744287
26, 938.87, 601.35, 749.44, 203.12, 0.000, 0.000, 0.000, 20:59:04.287, 1582471744287
27, 1054.39, 642.70, 912.19, 299.26, 0.000, 0.000, 0.000, 20:59:04.287, 1582471744287
28, 958.78, 542.50, 708.59, 204.39, 0.000, 0.000, 0.000, 20:59:04.287, 1582471744287
29, 957.38, 568.12, 733.12, 188.93, 0.000, 0.000, 0.000, 20:59:04.301, 1582471744301
30, 1017.58, 648.57, 837.07, 243.10, 0.000, 0.000, 0.000, 20:59:04.301, 1582471744301
31, 1077.25, 683.97, 890.63, 318.31, 0.000, 0.000, 0.000, 20:59:04.317, 1582471744317
32, 995.78, 563.21, 778.12, 234.42, 0.000, 0.000, 0.000, 20:59:04.317, 1582471744317
33, 989.64, 593.97, 789.83, 206.58, 0.000, 0.000, 0.000, 20:59:04.317, 1582471744317
34, 975.34, 626.56, 790.82, 231.74, 0.000, 0.000, 0.000, 20:59:04.317, 1582471744317
35, 1079.21, 692.36, 899.82, 333.71, 0.000, 0.000, 0.000, 20:59:04.331, 1582471744331
36, 1032.38, 600.45, 791.35, 251.14, 0.000, 0.000, 0.000, 20:59:04.331, 1582471744331
37, 978.75, 590.16, 780.85, 208.07, 0.000, 0.000, 0.000, 20:59:04.347, 1582471744347
38, 984.99, 646.70, 808.41, 237.67, 0.000, 0.000, 0.000, 20:59:04.347, 1582471744347
39, 1073.17, 700.77, 892.01, 325.83, 0.000, 0.000, 0.000, 20:59:04.348, 1582471744348
40, 1075.78, 656.28, 827.64, 272.59, 0.000, 0.000, 0.000, 20:59:04.348, 1582471744348
41, 1021.22, 652.13, 795.40, 214.20, 0.000, 0.000, 0.000, 20:59:04.361, 1582471744361
42, 1043.65, 700.75, 843.89, 228.93, 0.000, 0.000, 0.000, 20:59:04.361, 1582471744361
43, 1066.43, 694.43, 910.21, 296.96, 0.000, 0.000, 0.000, 20:59:04.377, 1582471744377
44, 1076.58, 642.11, 849.29, 252.07, 0.000, 0.000, 0.000, 20:59:04.377, 1582471744377
45, 1000.07, 634.05, 779.17, 196.98, 0.000, 0.000, 0.000, 20:59:04.377, 1582471744377
46, 1023.68, 690.82, 827.35, 240.86, 0.000, 0.000, 0.000, 20:59:04.377, 1582471744377
47, 1093.75, 733.72, 910.61, 309.27, 0.000, 0.000, 0.000, 20:59:04.391, 1582471744391
48, 1119.48, 686.06, 880.30, 284.74, 0.000, 0.000, 0.000, 20:59:04.391, 1582471744391
49, 1019.87, 654.70, 789.37, 191.51, 0.000, 0.000, 0.000, 20:59:04.407, 1582471744407
50, 1033.00, 687.59, 815.06, 234.48, 0.000, 0.000, 0.000, 20:59:04.407, 1582471744407
51, 1106.07, 740.46, 927.73, 301.74, 0.000, 0.000, 0.000, 20:59:04.407, 1582471744407
52, 1071.73, 665.87, 819.23, 259.10, 0.000, 0.000, 0.000, 20:59:04.407, 1582471744407
53, 1031.14, 673.76, 793.74, 210.09, 0.000, 0.000, 0.000, 20:59:04.421, 1582471744421
54, 1012.82, 695.18, 803.59, 222.65, 0.000, 0.000, 0.000, 20:59:04.421, 1582471744421
55, 1124.18, 768.55, 947.88, 335.89, 0.000, 0.000, 0.000, 20:59:04.437, 1582471744437
56, 1100.31, 692.72, 881.43, 289.86, 0.000, 0.000, 0.000, 20:59:04.437, 1582471744437
57, 944.12, 611.15, 734.36, 163.81, 0.000, 0.000, 0.000, 20:59:04.437, 1582471744437
58, 1054.20, 705.48, 822.59, 203.11, 0.000, 0.000, 0.000, 20:59:04.437, 1582471744437
59, 1129.29, 776.32, 938.33, 298.49, 0.000, 0.000, 0.000, 20:59:04.451, 1582471744451
60, 1036.75, 666.35, 846.92, 244.40, 0.000, 0.000, 0.000, 20:59:04.451, 1582471744451
61, 1008.59, 649.54, 784.35, 176.12, 0.000, 0.000, 0.000, 20:59:04.467, 1582471744467
62, 1009.49, 676.15, 786.87, 169.62, 0.000, 0.000, 0.000, 20:59:04.467, 1582471744467
63, 1074.73, 724.84, 877.72, 251.12, 0.000, 0.000, 0.000, 20:59:04.467, 1582471744467
64, 1096.62, 713.97, 880.86, 271.96, 0.000, 0.000, 0.000, 20:59:04.467, 1582471744467
65, 990.59, 629.80, 795.36, 161.56, 0.000, 0.000, 0.000, 20:59:04.481, 1582471744481
66, 1013.93, 678.60, 784.82, 160.84, 0.000, 0.000, 0.000, 20:59:04.481, 1582471744481
67, 1105.08, 746.34, 917.46, 262.87, 0.000, 0.000, 0.000, 20:59:04.497, 1582471744497
68, 1002.57, 636.08, 827.09, 208.71, 0.000, 0.000, 0.000, 20:59:04.497, 1582471744497
69, 998.35, 636.99, 792.68, 146.07, 0.000, 0.000, 0.000, 20:59:04.497, 1582471744497
70, 1036.56, 680.10, 821.38, 149.87, 0.000, 0.000, 0.000, 20:59:04.497, 1582471744497
71, 1050.55, 704.27, 896.98, 236.47, 0.000, 0.000, 0.000, 20:59:04.511, 1582471744511
72, 1038.42, 675.37, 839.97, 216.60, 0.000, 0.000, 0.000, 20:59:04.511, 1582471744511
73, 1030.60, 676.68, 807.57, 150.40, 0.000, 0.000, 0.000, 20:59:04.527, 1582471744527
74, 1033.63, 692.24, 853.82, 157.22, 0.000, 0.000, 0.000, 20:59:04.527, 1582471744527
75, 1058.87, 708.18, 908.17, 231.05, 0.000, 0.000, 0.000, 20:59:04.527, 1582471744527
76, 1064.44, 691.16, 890.05, 230.27, 0.000, 0.000, 0.000, 20:59:04.527, 1582471744527
77, 1027.29, 656.96, 828.07, 154.42, 0.000, 0.000, 0.000, 20:59:04.541, 1582471744541
78, 1046.03, 707.17, 836.14, 153.28, 0.000, 0.000, 0.000, 20:59:04.541, 1582471744541
79, 1123.71, 764.80, 999.50, 273.15, 0.000, 0.000, 0.000, 20:59:04.557, 1582471744557
80, 1049.06, 685.12, 876.75, 227.25, 0.000, 0.000, 0.000, 20:59:04.557, 1582471744557
81, 979.76, 637.21, 794.61, 132.52, 0.000, 0.000, 0.000, 20:59:04.557, 1582471744557
82, 1077.48, 722.70, 898.24, 160.62, 0.000, 0.000, 0.000, 20:59:04.557, 1582471744557
83, 1127.79, 778.82, 993.11, 252.70, 0.000, 0.000, 0.000, 20:59:04.571, 1582471744571
84, 1076.82, 707.45, 914.82, 230.43, 0.000, 0.000, 0.000, 20:59:04.571, 1582471744571
85, 1013.13, 669.15, 819.87, 144.73, 0.000, 0.000, 0.000, 20:59:04.587, 1582471744587
86, 1045.29, 715.09, 856.20, 156.20, 0.000, 0.000, 0.000, 20:59:04.587, 1582471744587
87, 1139.62, 804.80, 1004.32, 272.24, 0.000, 0.000, 0.000, 20:59:04.587, 1582471744587
88, 1070.75, 702.49, 946.87, 235.91, 0.000, 0.000, 0.000, 20:59:04.587, 1582471744587
89, 1054.83, 693.76, 918.80, 172.25, 0.000, 0.000, 0.000, 20:59:04.601, 1582471744601
90, 1109.90, 772.79, 934.09, 195.40, 0.000, 0.000, 0.000, 20:59:04.601, 1582471744601
91, 1160.71, 815.00, 1083.98, 291.30, 0.000, 0.000, 0.000, 20:59:04.617, 1582471744617
92, 1047.17, 716.43, 944.90, 239.61, 0.000, 0.000, 0.000, 20:59:04.617, 1582471744617
93, 1017.09, 699.01, 865.81, 162.62, 0.000, 0.000, 0.000, 20:59:04.617, 1582471744617
94, 1080.79, 761.21, 936.67, 184.93, 0.000, 0.000, 0.000, 20:59:04.617, 1582471744617
95, 1161.80, 835.59, 1056.32, 286.58, 0.000, 0.000, 0.000, 20:59:04.631, 1582471744631
96, 1127.82, 767.48, 1037.60, 267.08, 0.000, 0.000, 0.000, 20:59:04.631, 1582471744631
97, 1030.62, 707.80, 923.37, 152.09, 0.000, 0.000, 0.000, 20:59:04.647, 1582471744647
98, 1043.29, 739.37, 922.69, 156.29, 0.000, 0.000, 0.000, 20:59:04.647, 1582471744647
99, 1144.67, 830.13, 1066.23, 284.42, 0.000, 0.000, 0.000, 20:59:04.647, 1582471744647
100, 1078.05, 737.04, 1012.43, 245.38, 0.000, 0.000, 0.000, 20:59:04.647, 1582471744647
101, 1062.36, 730.99, 969.08, 176.05, 0.000, 0.000, 0.000, 20:59:04.661, 1582471744661
102, 1069.26, 757.02, 988.52, 176.01, 0.000, 0.000, 0.000, 20:59:04.661, 1582471744661
103, 1185.67, 871.41, 1143.56, 329.08, 0.000, 0.000, 0.000, 20:59:04.677, 1582471744677
104, 1135.42, 815.69, 1104.08, 297.62, 0.000, 0.000, 0.000, 20:59:04.677, 1582471744677
105, 1047.48, 731.66, 970.19, 184.68, 0.000, 0.000, 0.000, 20:59:04.678, 1582471744678
106, 1054.56, 759.19, 996.62, 166.39, 0.000, 0.000, 0.000, 20:59:04.678, 1582471744678
107, 1164.25, 835.88, 1166.91, 301.99, 0.000, 0.000, 0.000, 20:59:04.691, 1582471744691
108, 1054.04, 751.92, 1011.38, 238.85, 0.000, 0.000, 0.000, 20:59:04.691, 1582471744691
109, 1031.88, 745.37, 944.26, 159.45, 0.000, 0.000, 0.000, 20:59:04.707, 1582471744707
110, 1059.38, 775.44, 980.74, 172.68, 0.000, 0.000, 0.000, 20:59:04.707, 1582471744707
111, 1121.27, 823.45, 1100.36, 270.43, 0.000, 0.000, 0.000, 20:59:04.707, 1582471744707
112, 1061.16, 759.44, 1024.55, 236.87, 0.000, 0.000, 0.000, 20:59:04.707, 1582471744707
113, 972.17, 685.74, 940.64, 129.59, 0.000, 0.000, 0.000, 20:59:04.721, 1582471744721
114, 1016.25, 725.86, 961.73, 127.91, 0.000, 0.000, 0.000, 20:59:04.721, 1582471744721
115, 1134.80, 833.27, 1119.43, 277.76, 0.000, 0.000, 0.000, 20:59:04.737, 1582471744737
116, 1045.43, 730.64, 1025.38, 234.19, 0.000, 0.000, 0.000, 20:59:04.737, 1582471744737
117, 1002.28, 694.04, 966.56, 116.55, 0.000, 0.000, 0.000, 20:59:04.737, 1582471744737
118, 1009.69, 721.06, 993.82, 128.70, 0.000, 0.000, 0.000, 20:59:04.737, 1582471744737
119, 1099.65, 803.51, 1124.16, 256.98, 0.000, 0.000, 0.000, 20:59:04.751, 1582471744751
120, 1023.09, 734.41, 1025.49, 213.59, 0.000, 0.000, 0.000, 20:59:04.751, 1582471744751
121, 978.03, 705.81, 915.26, 136.99, 0.000, 0.000, 0.000, 20:59:04.767, 1582471744767
122, 1035.98, 757.55, 971.87, 164.42, 0.000, 0.000, 0.000, 20:59:04.767, 1582471744767
123, 1077.09, 800.25, 1090.58, 244.10, 0.000, 0.000, 0.000, 20:59:04.767, 1582471744767
124, 1031.77, 733.39, 1020.20, 227.31, 0.000, 0.000, 0.000, 20:59:04.767, 1582471744767
125, 955.19, 674.44, 919.02, 116.17, 0.000, 0.000, 0.000, 20:59:04.781, 1582471744781
126, 981.07, 725.36, 955.35, 145.30, 0.000, 0.000, 0.000, 20:59:04.781, 1582471744781
127, 1061.40, 798.95, 1084.03, 255.20, 0.000, 0.000, 0.000, 20:59:04.812, 1582471744812
128, 1058.40, 765.29, 1065.42, 264.76, 0.000, 0.000, 0.000, 20:59:04.812, 1582471744812
129, 961.84, 697.56, 962.28, 152.59, 0.000, 0.000, 0.000, 20:59:04.813, 1582471744813
130, 993.55, 734.95, 966.70, 154.33, 0.000, 0.000, 0.000, 20:59:04.813, 1582471744813
131, 1093.68, 824.93, 1121.82, 278.00, 0.000, 0.000, 0.000, 20:59:04.814, 1582471744814
132, 1085.97, 783.03, 1113.95, 301.38, 0.000, 0.000, 0.000, 20:59:04.814, 1582471744814
133, 1013.46, 730.17, 1030.03, 203.27, 0.000, 0.000, 0.000, 20:59:04.827, 1582471744827
134, 982.23, 737.12, 916.05, 161.15, 0.000, 0.000, 0.000, 20:59:04.827, 1582471744827
135, 1056.14, 797.70, 1072.89, 279.66, 0.000, 0.000, 0.000, 20:59:04.827, 1582471744827
136, 1018.32, 748.78, 1046.86, 272.03, 0.000, 0.000, 0.000, 20:59:04.827, 1582471744827
137, 1001.98, 725.22, 979.70, 190.16, 0.000, 0.000, 0.000, 20:59:04.841, 1582471744841
138, 1013.14, 746.77, 993.07, 193.71, 0.000, 0.000, 0.000, 20:59:04.841, 1582471744841
139, 1014.24, 783.42, 1009.52, 260.94, 0.000, 0.000, 0.000, 20:59:04.857, 1582471744857
140, 1013.56, 753.47, 1033.32, 277.89, 0.000, 0.000, 0.000, 20:59:04.857, 1582471744857
141, 926.93, 689.87, 922.12, 169.71, 0.000, 0.000, 0.000, 20:59:04.857, 1582471744857
142, 997.84, 749.98, 971.09, 183.77, 0.000, 0.000, 0.000, 20:59:04.857, 1582471744857
143, 1051.36, 805.95, 1093.68, 307.68, 0.000, 0.000, 0.000, 20:59:04.887, 1582471744887
144, 1043.15, 780.92, 1066.60, 306.65, 0.000, 0.000, 0.000, 20:59:04.887, 1582471744887
145, 953.06, 708.36, 927.15, 198.04, 0.000, 0.000, 0.000, 20:59:04.888, 1582471744888
146, 962.84, 727.32, 936.44, 185.99, 0.000, 0.000, 0.000, 20:59:04.888, 1582471744888
147, 1090.24, 846.66, 1118.31, 333.15, 0.000, 0.000, 0.000, 20:59:04.889, 1582471744889
148, 1054.06, 792.10, 1064.95, 323.82, 0.000, 0.000, 0.000, 20:59:04.889, 1582471744889
149, 939.05, 700.11, 905.89, 186.75, 0.000, 0.000, 0.000, 20:59:04.901, 1582471744901
150, 948.92, 709.75, 920.46, 180.27, 0.000, 0.000, 0.000, 20:59:04.901, 1582471744901
151, 1047.89, 800.62, 1093.19, 295.65, 0.000, 0.000, 0.000, 20:59:04.917, 1582471744917
152, 1024.22, 761.84, 1072.55, 319.64, 0.000, 0.000, 0.000, 20:59:04.917, 1582471744917
153, 941.51, 697.79, 904.68, 188.47, 0.000, 0.000, 0.000, 20:59:04.917, 1582471744917
154, 924.87, 698.33, 856.49, 150.93, 0.000, 0.000, 0.000, 20:59:04.917, 1582471744917
155, 1020.06, 796.29, 1041.12, 285.78, 0.000, 0.000, 0.000, 20:59:04.931, 1582471744931
156, 1028.65, 786.27, 1018.79, 308.33, 0.000, 0.000, 0.000, 20:59:04.931, 1582471744931
157, 903.33, 684.90, 859.95, 177.58, 0.000, 0.000, 0.000, 20:59:04.947, 1582471744947
158, 941.33, 716.77, 875.65, 168.35, 0.000, 0.000, 0.000, 20:59:04.947, 1582471744947
159, 991.35, 785.18, 998.39, 274.61, 0.000, 0.000, 0.000, 20:59:04.947, 1582471744947
160, 994.07, 753.61, 1020.50, 311.25, 0.000, 0.000, 0.000, 20:59:04.947, 1582471744947
161, 911.02, 678.69, 871.70, 194.28, 0.000, 0.000, 0.000, 20:59:04.961, 1582471744961
162, 919.41, 698.43, 856.35, 168.32, 0.000, 0.000, 0.000, 20:59:04.961, 1582471744961
163, 1006.42, 790.84, 1004.80, 304.84, 0.000, 0.000, 0.000, 20:59:04.977, 1582471744977
164, 994.34, 763.94, 997.02, 315.10, 0.000, 0.000, 0.000, 20:59:04.977, 1582471744977
165, 912.00, 692.57, 847.51, 196.24, 0.000, 0.000, 0.000, 20:59:04.978, 1582471744978
166, 897.08, 683.30, 810.49, 153.95, 0.000, 0.000, 0.000, 20:59:04.978, 1582471744978
167, 978.47, 772.01, 967.70, 276.39, 0.000, 0.000, 0.000, 20:59:04.991, 1582471744991
168, 1023.55, 769.08, 1042.28, 342.81, 0.000, 0.000, 0.000, 20:59:04.991, 1582471744991
169, 940.91, 706.29, 883.29, 214.29, 0.000, 0.000, 0.000, 20:59:05.007, 1582471745007
170, 873.75, 663.92, 768.35, 142.84, 0.000, 0.000, 0.000, 20:59:05.007, 1582471745007
171, 950.12, 776.63, 906.27, 274.07, 0.000, 0.000, 0.000, 20:59:05.007, 1582471745007
172, 1007.42, 795.85, 986.22, 339.57, 0.000, 0.000, 0.000, 20:59:05.007, 1582471745007
173, 900.01, 693.02, 825.45, 210.81, 0.000, 0.000, 0.000, 20:59:05.021, 1582471745021
174, 861.27, 666.04, 761.52, 155.17, 0.000, 0.000, 0.000, 20:59:05.021, 1582471745021
175, 926.23, 757.41, 890.09, 274.72, 0.000, 0.000, 0.000, 20:59:05.037, 1582471745037
176, 960.58, 773.11, 950.17, 351.94, 0.000, 0.000, 0.000, 20:59:05.037, 1582471745037
177, 877.23, 698.09, 791.94, 215.50, 0.000, 0.000, 0.000, 20:59:05.037, 1582471745037
178, 866.00, 681.16, 752.62, 181.62, 0.000, 0.000, 0.000, 20:59:05.037, 1582471745037
179, 954.55, 779.99, 921.45, 300.09, 0.000, 0.000, 0.000, 20:59:05.051, 1582471745051
180, 962.30, 773.06, 957.49, 350.93, 0.000, 0.000, 0.000, 20:59:05.051, 1582471745051
181, 876.39, 693.05, 801.02, 219.11, 0.000, 0.000, 0.000, 20:59:05.067, 1582471745067
182, 866.95, 686.47, 754.28, 170.40, 0.000, 0.000, 0.000, 20:59:05.067, 1582471745067
183, 969.57, 794.82, 921.91, 294.63, 0.000, 0.000, 0.000, 20:59:05.067, 1582471745067
184, 963.14, 780.67, 960.90, 376.34, 0.000, 0.000, 0.000, 20:59:05.067, 1582471745067
185, 895.50, 702.05, 826.75, 252.53, 0.000, 0.000, 0.000, 20:59:05.081, 1582471745081
186, 900.81, 719.75, 771.63, 221.98, 0.000, 0.000, 0.000, 20:59:05.081, 1582471745081
187, 959.21, 791.96, 908.03, 296.34, 0.000, 0.000, 0.000, 20:59:05.097, 1582471745097
188, 945.81, 777.25, 986.72, 401.63, 0.000, 0.000, 0.000, 20:59:05.097, 1582471745097
189, 880.24, 723.89, 777.73, 275.03, 0.000, 0.000, 0.000, 20:59:05.097, 1582471745097
190, 814.56, 656.70, 693.35, 172.59, 0.000, 0.000, 0.000, 20:59:05.097, 1582471745097
191, 848.06, 699.90, 813.65, 265.30, 0.000, 0.000, 0.000, 20:59:05.127, 1582471745127
192, 897.63, 736.11, 905.19, 336.77, 0.000, 0.000, 0.000, 20:59:05.127, 1582471745127
193, 797.29, 639.54, 710.18, 200.21, 0.000, 0.000, 0.000, 20:59:05.128, 1582471745128
194, 773.75, 612.03, 646.66, 132.67, 0.000, 0.000, 0.000, 20:59:05.128, 1582471745128
195, 848.94, 707.12, 805.06, 250.35, 0.000, 0.000, 0.000, 20:59:05.129, 1582471745129
196, 892.09, 751.35, 893.75, 355.80, 0.000, 0.000, 0.000, 20:59:05.129, 1582471745129
197, 793.19, 653.17, 709.36, 195.51, 0.000, 0.000, 0.000, 20:59:05.141, 1582471745141
198, 770.46, 632.67, 650.63, 148.07, 0.000, 0.000, 0.000, 20:59:05.141, 1582471745141
199, 850.39, 738.69, 819.69, 272.93, 0.000, 0.000, 0.000, 20:59:05.157, 1582471745157
200, 921.82, 798.67, 926.39, 383.66, 0.000, 0.000, 0.000, 20:59:05.157, 1582471745157
0, 827.00, 700.77, 759.38, 234.28, 0.000, 0.000, 0.000, 20:59:05.157, 1582471745157
1, 830.72, 715.85, 696.85, 189.25, 0.000, 0.000, 0.000, 20:59:05.172, 1582471745172
2, 994.66, 861.61, 939.41, 349.43, 0.000, 0.000, 0.000, 20:59:05.172, 1582471745172
3, 920.76, 814.21, 914.73, 391.62, 0.000, 0.000, 0.000, 20:59:05.172, 1582471745172
4, 815.22, 714.43, 733.18, 234.49, 0.000, 0.000, 0.000, 20:59:05.172, 1582471745172
5, 688.79, 604.00, 551.37, 121.07, 0.000, 0.000, 0.000, 20:59:05.186, 1582471745186
6, 784.60, 719.66, 733.98, 231.20, 0.000, 0.000, 0.000, 20:59:05.186, 1582471745186
7, 804.67, 749.08, 804.18, 334.54, 0.000, 0.000, 0.000, 20:59:05.202, 1582471745202
8, 757.91, 684.33, 651.99, 203.37, 0.000, 0.000, 0.000, 20:59:05.202, 1582471745202
9, 714.00, 658.76, 565.77, 136.43, 0.000, 0.000, 0.000, 20:59:05.202, 1582471745202
10, 774.39, 736.98, 698.54, 241.79, 0.000, 0.000, 0.000, 20:59:05.202, 1582471745202
11, 850.11, 816.37, 822.22, 377.91, 0.000, 0.000, 0.000, 20:59:05.216, 1582471745216
12, 735.54, 697.01, 616.05, 216.85, 0.000, 0.000, 0.000, 20:59:05.216, 1582471745216
13, 721.31, 699.82, 551.46, 143.31, 0.000, 0.000, 0.000, 20:59:05.232, 1582471745232
14, 812.11, 811.07, 712.12, 267.51, 0.000, 0.000, 0.000, 20:59:05.232, 1582471745232
15, 834.77, 842.74, 801.99, 381.74, 0.000, 0.000, 0.000, 20:59:05.233, 1582471745233
16, 668.72, 691.81, 562.70, 192.34, 0.000, 0.000, 0.000, 20:59:05.233, 1582471745233
17, 625.35, 658.60, 443.46, 110.04, 0.000, 0.000, 0.000, 20:59:05.246, 1582471745246
18, 757.63, 806.05, 618.02, 251.41, 0.000, 0.000, 0.000, 20:59:05.246, 1582471745246
19, 857.40, 887.54, 806.59, 405.46, 0.000, 0.000, 0.000, 20:59:05.262, 1582471745262
20, 649.55, 701.74, 523.76, 197.82, 0.000, 0.000, 0.000, 20:59:05.262, 1582471745262
21, 610.93, 658.10, 439.01, 113.89, 0.000, 0.000, 0.000, 20:59:05.262, 1582471745262
22, 739.42, 807.81, 631.37, 259.61, 0.000, 0.000, 0.000, 20:59:05.262, 1582471745262
23, 820.08, 886.38, 783.57, 408.23, 0.000, 0.000, 0.000, 20:59:05.276, 1582471745276
24, 672.24, 726.65, 526.60, 198.65, 0.000, 0.000, 0.000, 20:59:05.276, 1582471745276
25, 637.26, 694.06, 449.87, 129.84, 0.000, 0.000, 0.000, 20:59:05.292, 1582471745292
26, 753.67, 826.90, 636.73, 257.97, 0.000, 0.000, 0.000, 20:59:05.292, 1582471745292
27, 809.74, 886.27, 756.03, 383.07, 0.000, 0.000, 0.000, 20:59:05.292, 1582471745292
28, 676.06, 733.55, 546.75, 209.27, 0.000, 0.000, 0.000, 20:59:05.292, 1582471745292
29, 609.94, 674.57, 419.41, 105.02, 0.000, 0.000, 0.000, 20:59:05.306, 1582471745306
30, 697.99, 779.04, 574.71, 224.13, 0.000, 0.000, 0.000, 20:59:05.306, 1582471745306
31, 810.60, 895.24, 752.66, 392.99, 0.000, 0.000, 0.000, 20:59:05.322, 1582471745322
32, 680.58, 754.16, 530.29, 213.04, 0.000, 0.000, 0.000, 20:59:05.322, 1582471745322
33, 672.31, 736.82, 461.37, 141.25, 0.000, 0.000, 0.000, 20:59:05.322, 1582471745322
34, 747.97, 838.73, 620.66, 270.60, 0.000, 0.000, 0.000, 20:59:05.322, 1582471745322
35, 818.69, 903.60, 745.98, 408.85, 0.000, 0.000, 0.000, 20:59:05.336, 1582471745336
36, 690.72, 771.00, 500.27, 230.72, 0.000, 0.000, 0.000, 20:59:05.336, 1582471745336
37, 679.97, 740.09, 464.87, 161.04, 0.000, 0.000, 0.000, 20:59:05.351, 1582471745351
38, 736.15, 835.59, 574.85, 269.59, 0.000, 0.000, 0.000, 20:59:05.351, 1582471745351
39, 840.77, 928.29, 734.44, 425.28, 0.000, 0.000, 0.000, 20:59:05.367, 1582471745367
40, 678.05, 789.80, 438.72, 234.24, 0.000, 0.000, 0.000, 20:59:05.367, 1582471745367
41, 637.34, 730.12, 380.93, 159.70, 0.000, 0.000, 0.000, 20:59:05.367, 1582471745367
42, 708.94, 820.03, 522.79, 248.64, 0.000, 0.000, 0.000, 20:59:05.367, 1582471745367
43, 794.58, 906.22, 677.63, 417.49, 0.000, 0.000, 0.000, 20:59:05.382, 1582471745382
44, 687.57, 786.45, 457.33, 240.62, 0.000, 0.000, 0.000, 20:59:05.382, 1582471745382
45, 636.73, 729.46, 349.08, 144.95, 0.000, 0.000, 0.000, 20:59:05.382, 1582471745382
46, 734.67, 843.07, 505.17, 267.93, 0.000, 0.000, 0.000, 20:59:05.382, 1582471745382
47, 826.69, 939.94, 663.56, 436.67, 0.000, 0.000, 0.000, 20:59:05.396, 1582471745396
48, 721.72, 820.79, 460.34, 259.17, 0.000, 0.000, 0.000, 20:59:05.396, 1582471745396
49, 662.15, 760.00, 360.58, 168.46, 0.000, 0.000, 0.000, 20:59:05.412, 1582471745412
50, 751.77, 846.14, 520.26, 269.10, 0.000, 0.000, 0.000, 20:59:05.412, 1582471745412
51, 849.77, 948.38, 656.78, 432.03, 0.000, 0.000, 0.000, 20:59:05.412, 1582471745412
52, 651.67, 770.15, 386.69, 229.97, 0.000, 0.000, 0.000, 20:59:05.412, 1582471745412
53, 643.48, 745.73, 282.50, 145.44, 0.000, 0.000, 0.000, 20:59:05.442, 1582471745442
54, 726.40, 847.45, 460.66, 266.13, 0.000, 0.000, 0.000, 20:59:05.442, 1582471745442
55, 727.27, 875.51, 532.03, 381.49, 0.000, 0.000, 0.000, 20:59:05.443, 1582471745443
56, 623.80, 752.52, 328.74, 208.49, 0.000, 0.000, 0.000, 20:59:05.443, 1582471745443
57, 611.47, 716.04, 259.03, 135.27, 0.000, 0.000, 0.000, 20:59:05.444, 1582471745444
58, 695.04, 823.91, 399.48, 241.20, 0.000, 0.000, 0.000, 20:59:05.444, 1582471745444
59, 802.53, 925.86, 565.03, 407.18, 0.000, 0.000, 0.000, 20:59:05.473, 1582471745473
60, 713.52, 812.33, 389.09, 250.34, 0.000, 0.000, 0.000, 20:59:05.473, 1582471745473
61, 591.66, 727.87, 200.74, 127.41, 0.000, 0.000, 0.000, 20:59:05.473, 1582471745473
62, 687.55, 826.33, 366.75, 253.02, 0.000, 0.000, 0.000, 20:59:05.473, 1582471745473
63, 812.44, 945.12, 538.70, 427.57, 0.000, 0.000, 0.000, 20:59:05.474, 1582471745474
64, 712.79, 826.33, 334.89, 261.73, 0.000, 0.000, 0.000, 20:59:05.474, 1582471745474
65, 649.71, 767.75, 229.54, 172.17, 0.000, 0.000, 0.000, 20:59:05.486, 1582471745486
66, 720.37, 853.26, 365.13, 265.39, 0.000, 0.000, 0.000, 20:59:05.486, 1582471745486
67, 837.07, 972.68, 552.24, 450.01, 0.000, 0.000, 0.000, 20:59:05.502, 1582471745502
68, 716.67, 836.62, 317.39, 277.22, 0.000, 0.000, 0.000, 20:59:05.502, 1582471745502
69, 673.28, 781.19, 217.30, 178.11, 0.000, 0.000, 0.000, 20:59:05.503, 1582471745503
70, 751.61, 871.52, 366.24, 282.18, 0.000, 0.000, 0.000, 20:59:05.503, 1582471745503
71, 863.99, 986.45, 545.59, 464.21, 0.000, 0.000, 0.000, 20:59:05.532, 1582471745532
72, 742.53, 857.98, 280.52, 278.91, 0.000, 0.000, 0.000, 20:59:05.532, 1582471745532
73, 698.82, 789.81, 214.21, 195.31, 0.000, 0.000, 0.000, 20:59:05.533, 1582471745533
74, 757.69, 871.40, 352.67, 282.01, 0.000, 0.000, 0.000, 20:59:05.533, 1582471745533
75, 857.79, 980.39, 501.83, 447.66, 0.000, 0.000, 0.000, 20:59:05.534, 1582471745534
76, 720.38, 816.21, 271.26, 247.72, 0.000, 0.000, 0.000, 20:59:05.534, 1582471745534
77, 663.72, 768.63, 171.39, 163.44, 0.000, 0.000, 0.000, 20:59:05.546, 1582471745546
78, 689.42, 817.93, 263.78, 238.89, 0.000, 0.000, 0.000, 20:59:05.546, 1582471745546
79, 840.00, 964.44, 478.83, 443.15, 0.000, 0.000, 0.000, 20:59:05.562, 1582471745562
80, 727.36, 836.02, 249.89, 262.40, 0.000, 0.000, 0.000, 20:59:05.562, 1582471745562
81, 678.24, 777.77, 157.76, 166.16, 0.000, 0.000, 0.000, 20:59:05.562, 1582471745562
82, 689.66, 830.94, 233.77, 249.45, 0.000, 0.000, 0.000, 20:59:05.562, 1582471745562
83, 804.33, 939.73, 432.18, 419.90, 0.000, 0.000, 0.000, 20:59:05.576, 1582471745576
84, 711.76, 820.86, 221.79, 241.45, 0.000, 0.000, 0.000, 20:59:05.576, 1582471745576
85, 678.00, 770.21, 129.66, 154.30, 0.000, 0.000, 0.000, 20:59:05.592, 1582471745592
86, 756.94, 856.32, 271.99, 249.11, 0.000, 0.000, 0.000, 20:59:05.592, 1582471745592
87, 831.79, 947.28, 428.58, 432.06, 0.000, 0.000, 0.000, 20:59:05.607, 1582471745607
88, 706.61, 796.70, 212.76, 250.78, 0.000, 0.000, 0.000, 20:59:05.607, 1582471745607
89, 690.54, 757.89, 146.74, 163.77, 0.000, 0.000, 0.000, 20:59:05.607, 1582471745607
90, 744.41, 829.95, 267.06, 238.83, 0.000, 0.000, 0.000, 20:59:05.607, 1582471745607
91, 870.60, 957.73, 449.16, 426.77, 0.000, 0.000, 0.000, 20:59:05.622, 1582471745622
92, 745.15, 819.36, 224.01, 243.67, 0.000, 0.000, 0.000, 20:59:05.622, 1582471745622
93, 677.57, 751.07, 115.67, 148.12, 0.000, 0.000, 0.000, 20:59:05.622, 1582471745622
94, 730.98, 827.45, 244.90, 231.82, 0.000, 0.000, 0.000, 20:59:05.622, 1582471745622
95, 869.20, 958.86, 453.13, 435.88, 0.000, 0.000, 0.000, 20:59:05.636, 1582471745636
96, 710.81, 781.61, 193.21, 237.55, 0.000, 0.000, 0.000, 20:59:05.636, 1582471745636
97, 651.46, 708.24, 101.86, 132.58, 0.000, 0.000, 0.000, 20:59:05.652, 1582471745652
98, 777.06, 843.59, 249.05, 251.32, 0.000, 0.000, 0.000, 20:59:05.652, 1582471745652
99, 905.08, 959.81, 475.03, 441.54, 0.000, 0.000, 0.000, 20:59:05.652, 1582471745652
100, 733.40, 808.60, 208.77, 244.80, 0.000, 0.000, 0.000, 20:59:05.652, 1582471745652
101, 689.30, 750.78, 110.01, 149.64, 0.000, 0.000, 0.000, 20:59:05.683, 1582471745683
102, 769.25, 833.77, 257.79, 241.83, 0.000, 0.000, 0.000, 20:59:05.683, 1582471745683
103, 887.06, 953.68, 459.92, 440.01, 0.000, 0.000, 0.000, 20:59:05.683, 1582471745683
104, 783.52, 821.96, 268.82, 256.86, 0.000, 0.000, 0.000, 20:59:05.683, 1582471745683
105, 778.68, 801.79, 193.55, 183.87, 0.000, 0.000, 0.000, 20:59:05.684, 1582471745684
106, 740.05, 809.31, 225.06, 221.74, 0.000, 0.000, 0.000, 20:59:05.684, 1582471745684
107, 863.08, 927.08, 452.99, 420.79, 0.000, 0.000, 0.000, 20:59:05.696, 1582471745696
108, 744.42, 784.26, 235.87, 252.71, 0.000, 0.000, 0.000, 20:59:05.696, 1582471745696
109, 702.40, 730.48, 155.73, 157.30, 0.000, 0.000, 0.000, 20:59:05.712, 1582471745712
110, 766.09, 807.05, 281.49, 230.05, 0.000, 0.000, 0.000, 20:59:05.712, 1582471745712
111, 897.53, 949.70, 493.11, 435.92, 0.000, 0.000, 0.000, 20:59:05.712, 1582471745712
112, 773.55, 803.75, 274.80, 256.39, 0.000, 0.000, 0.000, 20:59:05.712, 1582471745712
113, 729.21, 754.18, 182.08, 153.35, 0.000, 0.000, 0.000, 20:59:05.726, 1582471745726
114, 805.90, 842.34, 314.91, 245.03, 0.000, 0.000, 0.000, 20:59:05.726, 1582471745726
115, 920.87, 954.18, 526.01, 430.23, 0.000, 0.000, 0.000, 20:59:05.742, 1582471745742
116, 808.33, 820.75, 319.36, 243.61, 0.000, 0.000, 0.000, 20:59:05.742, 1582471745742
117, 758.93, 767.57, 234.55, 155.36, 0.000, 0.000, 0.000, 20:59:05.742, 1582471745742
118, 773.09, 818.55, 287.70, 214.33, 0.000, 0.000, 0.000, 20:59:05.742, 1582471745742
119, 936.50, 954.56, 566.97, 440.37, 0.000, 0.000, 0.000, 20:59:05.756, 1582471745756
120, 896.34, 870.33, 445.69, 297.34, 0.000, 0.000, 0.000, 20:59:05.756, 1582471745756
121, 729.54, 763.97, 202.94, 160.49, 0.000, 0.000, 0.000, 20:59:05.772, 1582471745772
122, 780.22, 829.32, 312.15, 229.67, 0.000, 0.000, 0.000, 20:59:05.772, 1582471745772
123, 864.60, 927.75, 492.26, 411.77, 0.000, 0.000, 0.000, 20:59:05.772, 1582471745772
124, 848.14, 836.71, 413.41, 270.31, 0.000, 0.000, 0.000, 20:59:05.772, 1582471745772
125, 735.31, 772.75, 230.94, 160.97, 0.000, 0.000, 0.000, 20:59:05.786, 1582471745786
126, 780.50, 833.84, 332.25, 239.88, 0.000, 0.000, 0.000, 20:59:05.786, 1582471745786
127, 940.76, 969.17, 580.60, 443.35, 0.000, 0.000, 0.000, 20:59:05.802, 1582471745802
128, 808.74, 831.62, 327.39, 245.43, 0.000, 0.000, 0.000, 20:59:05.802, 1582471745802
129, 763.41, 792.23, 246.72, 168.35, 0.000, 0.000, 0.000, 20:59:05.803, 1582471745803
130, 852.15, 876.11, 411.00, 258.10, 0.000, 0.000, 0.000, 20:59:05.803, 1582471745803
131, 968.02, 981.57, 600.39, 426.11, 0.000, 0.000, 0.000, 20:59:05.816, 1582471745816
132, 832.57, 835.21, 388.37, 251.35, 0.000, 0.000, 0.000, 20:59:05.816, 1582471745816
133, 767.47, 783.17, 282.36, 162.09, 0.000, 0.000, 0.000, 20:59:05.832, 1582471745832
134, 855.62, 870.79, 397.90, 239.22, 0.000, 0.000, 0.000, 20:59:05.832, 1582471745832
135, 953.77, 962.93, 581.01, 399.39, 0.000, 0.000, 0.000, 20:59:05.832, 1582471745832
136, 828.44, 827.04, 395.64, 224.25, 0.000, 0.000, 0.000, 20:59:05.832, 1582471745832
137, 778.80, 777.66, 314.08, 133.52, 0.000, 0.000, 0.000, 20:59:05.846, 1582471745846
138, 849.59, 862.59, 429.62, 227.17, 0.000, 0.000, 0.000, 20:59:05.846, 1582471745846
139, 940.43, 948.29, 608.51, 380.43, 0.000, 0.000, 0.000, 20:59:05.862, 1582471745862
140, 836.92, 835.11, 408.35, 216.89, 0.000, 0.000, 0.000, 20:59:05.862, 1582471745862
141, 824.89, 819.48, 380.30, 188.41, 0.000, 0.000, 0.000, 20:59:05.862, 1582471745862
142, 875.07, 882.49, 475.36, 254.54, 0.000, 0.000, 0.000, 20:59:05.862, 1582471745862
143, 920.18, 949.38, 605.38, 398.72, 0.000, 0.000, 0.000, 20:59:05.876, 1582471745876
144, 850.72, 847.70, 445.48, 271.61, 0.000, 0.000, 0.000, 20:59:05.876, 1582471745876
145, 814.29, 812.54, 377.62, 198.44, 0.000, 0.000, 0.000, 20:59:05.892, 1582471745892
146, 913.04, 909.05, 519.50, 291.61, 0.000, 0.000, 0.000, 20:59:05.892, 1582471745892
147, 966.06, 973.55, 672.26, 471.09, 0.000, 0.000, 0.000, 20:59:05.893, 1582471745893
148, 798.14, 820.33, 433.62, 259.28, 0.000, 0.000, 0.000, 20:59:05.893, 1582471745893
149, 770.36, 785.16, 372.15, 203.99, 0.000, 0.000, 0.000, 20:59:05.906, 1582471745906
150, 835.31, 860.76, 476.51, 275.33, 0.000, 0.000, 0.000, 20:59:05.906, 1582471745906
151, 926.88, 941.92, 629.90, 411.43, 0.000, 0.000, 0.000, 20:59:05.922, 1582471745922
152, 816.69, 824.53, 443.14, 261.02, 0.000, 0.000, 0.000, 20:59:05.922, 1582471745922
153, 789.45, 793.71, 374.21, 203.76, 0.000, 0.000, 0.000, 20:59:05.922, 1582471745922
154, 844.33, 860.75, 496.49, 292.66, 0.000, 0.000, 0.000, 20:59:05.922, 1582471745922
155, 889.65, 915.44, 602.08, 400.96, 0.000, 0.000, 0.000, 20:59:05.936, 1582471745936
156, 846.18, 854.00, 463.07, 293.59, 0.000, 0.000, 0.000, 20:59:05.936, 1582471745936
157, 865.30, 840.31, 461.84, 253.86, 0.000, 0.000, 0.000, 20:59:05.968, 1582471745968
158, 829.60, 838.76, 501.96, 275.89, 0.000, 0.000, 0.000, 20:59:05.968, 1582471745968
159, 864.68, 905.30, 602.50, 410.44, 0.000, 0.000, 0.000, 20:59:05.968, 1582471745968
160, 789.06, 809.74, 436.61, 286.53, 0.000, 0.000, 0.000, 20:59:05.968, 1582471745968
161, 792.78, 802.79, 401.32, 226.19, 0.000, 0.000, 0.000, 20:59:05.969, 1582471745969
162, 858.50, 877.51, 538.09, 318.65, 0.000, 0.000, 0.000, 20:59:05.969, 1582471745969
163, 912.81, 938.83, 648.37, 442.71, 0.000, 0.000, 0.000, 20:59:05.982, 1582471745982
164, 857.08, 861.50, 512.40, 322.82, 0.000, 0.000, 0.000, 20:59:05.982, 1582471745982
165, 782.71, 794.89, 428.45, 241.99, 0.000, 0.000, 0.000, 20:59:05.997, 1582471745997
166, 876.05, 873.71, 553.52, 336.19, 0.000, 0.000, 0.000, 20:59:05.997, 1582471745997
167, 946.11, 959.11, 687.03, 476.00, 0.000, 0.000, 0.000, 20:59:05.997, 1582471745997
168, 807.11, 816.18, 479.29, 299.53, 0.000, 0.000, 0.000, 20:59:05.997, 1582471745997
169, 770.90, 771.66, 434.66, 228.22, 0.000, 0.000, 0.000, 20:59:06.012, 1582471746012
170, 876.04, 858.15, 580.77, 334.75, 0.000, 0.000, 0.000, 20:59:06.012, 1582471746012
171, 911.02, 920.45, 682.48, 479.14, 0.000, 0.000, 0.000, 20:59:06.027, 1582471746027
172, 829.48, 820.78, 537.76, 313.78, 0.000, 0.000, 0.000, 20:59:06.027, 1582471746027
173, 804.48, 796.07, 491.86, 255.11, 0.000, 0.000, 0.000, 20:59:06.027, 1582471746027
174, 859.97, 859.29, 604.04, 320.41, 0.000, 0.000, 0.000, 20:59:06.027, 1582471746027
175, 930.02, 931.15, 724.71, 470.03, 0.000, 0.000, 0.000, 20:59:06.042, 1582471746042
176, 823.99, 828.50, 533.17, 309.60, 0.000, 0.000, 0.000, 20:59:06.042, 1582471746042
177, 827.77, 803.02, 533.27, 266.46, 0.000, 0.000, 0.000, 20:59:06.042, 1582471746042
178, 884.35, 891.54, 596.15, 324.89, 0.000, 0.000, 0.000, 20:59:06.042, 1582471746042
179, 968.97, 965.26, 748.72, 481.99, 0.000, 0.000, 0.000, 20:59:06.056, 1582471746056
180, 853.83, 843.55, 598.09, 322.42, 0.000, 0.000, 0.000, 20:59:06.056, 1582471746056
181, 795.70, 809.85, 463.52, 250.13, 0.000, 0.000, 0.000, 20:59:06.072, 1582471746072
182, 875.42, 882.16, 604.51, 355.55, 0.000, 0.000, 0.000, 20:59:06.072, 1582471746072
183, 977.02, 985.98, 793.66, 515.10, 0.000, 0.000, 0.000, 20:59:06.072, 1582471746072
184, 783.38, 816.38, 537.45, 317.60, 0.000, 0.000, 0.000, 20:59:06.072, 1582471746072
185, 790.18, 812.74, 501.78, 282.95, 0.000, 0.000, 0.000, 20:59:06.086, 1582471746086
186, 840.20, 875.89, 591.52, 327.96, 0.000, 0.000, 0.000, 20:59:06.086, 1582471746086
187, 959.55, 969.63, 792.48, 519.36, 0.000, 0.000, 0.000, 20:59:06.102, 1582471746102
188, 800.65, 832.40, 534.37, 318.42, 0.000, 0.000, 0.000, 20:59:06.102, 1582471746102
189, 774.32, 821.00, 477.00, 271.20, 0.000, 0.000, 0.000, 20:59:06.102, 1582471746102
190, 863.11, 888.55, 613.96, 362.02, 0.000, 0.000, 0.000, 20:59:06.102, 1582471746102
191, 917.63, 962.16, 722.93, 500.17, 0.000, 0.000, 0.000, 20:59:06.116, 1582471746116
192, 851.12, 883.02, 570.58, 376.33, 0.000, 0.000, 0.000, 20:59:06.116, 1582471746116
193, 787.51, 824.51, 511.90, 298.85, 0.000, 0.000, 0.000, 20:59:06.132, 1582471746132
194, 846.24, 880.71, 603.75, 365.37, 0.000, 0.000, 0.000, 20:59:06.132, 1582471746132
195, 943.80, 965.59, 757.63, 529.45, 0.000, 0.000, 0.000, 20:59:06.132, 1582471746132
196, 823.70, 852.45, 559.49, 377.76, 0.000, 0.000, 0.000, 20:59:06.132, 1582471746132
197, 782.00, 808.66, 507.26, 309.95, 0.000, 0.000, 0.000, 20:59:06.146, 1582471746146
198, 850.29, 877.04, 619.71, 393.24, 0.000, 0.000, 0.000, 20:59:06.146, 1582471746146
199, 949.24, 964.39, 753.01, 546.29, 0.000, 0.000, 0.000, 20:59:06.162, 1582471746162
200, 821.29, 822.79, 573.93, 395.03, 0.000, 0.000, 0.000, 20:59:06.162, 1582471746162
0, 838.09, 825.02, 556.85, 334.66, 0.000, 0.000, 0.000, 20:59:06.162, 1582471746162
1, 897.47, 883.45, 651.39, 391.12, 0.000, 0.000, 0.000, 20:59:06.177, 1582471746177
2, 938.67, 932.44, 757.92, 539.40, 0.000, 0.000, 0.000, 20:59:06.177, 1582471746177
3, 852.79, 827.45, 612.41, 408.78, 0.000, 0.000, 0.000, 20:59:06.177, 1582471746177
4, 804.99, 799.81, 508.89, 336.28, 0.000, 0.000, 0.000, 20:59:06.177, 1582471746177
5, 877.63, 849.51, 629.75, 403.10, 0.000, 0.000, 0.000, 20:59:06.191, 1582471746191
6, 952.54, 903.82, 802.48, 553.69, 0.000, 0.000, 0.000, 20:59:06.191, 1582471746191
7, 835.87, 810.25, 590.19, 405.93, 0.000, 0.000, 0.000, 20:59:06.207, 1582471746207
8, 806.60, 776.83, 518.78, 342.17, 0.000, 0.000, 0.000, 20:59:06.207, 1582471746207
9, 839.55, 816.45, 592.95, 392.87, 0.000, 0.000, 0.000, 20:59:06.207, 1582471746207
10, 936.18, 901.17, 782.90, 548.30, 0.000, 0.000, 0.000, 20:59:06.207, 1582471746207
11, 842.18, 792.28, 618.50, 404.69, 0.000, 0.000, 0.000, 20:59:06.237, 1582471746237
12, 800.39, 753.91, 546.30, 333.43, 0.000, 0.000, 0.000, 20:59:06.237, 1582471746237
13, 858.92, 816.91, 663.83, 418.25, 0.000, 0.000, 0.000, 20:59:06.238, 1582471746238
14, 961.74, 911.04, 816.35, 560.86, 0.000, 0.000, 0.000, 20:59:06.238, 1582471746238
15, 863.76, 811.56, 641.05, 408.42, 0.000, 0.000, 0.000, 20:59:06.239, 1582471746239
16, 772.38, 746.97, 512.45, 335.27, 0.000, 0.000, 0.000, 20:59:06.239, 1582471746239
17, 861.72, 811.16, 671.77, 400.99, 0.000, 0.000, 0.000, 20:59:06.251, 1582471746251
18, 996.37, 942.09, 836.59, 602.35, 0.000, 0.000, 0.000, 20:59:06.251, 1582471746251
19, 859.75, 811.55, 621.06, 418.78, 0.000, 0.000, 0.000, 20:59:06.267, 1582471746267
20, 846.34, 771.16, 589.12, 367.58, 0.000, 0.000, 0.000, 20:59:06.267, 1582471746267
21, 805.46, 766.37, 634.38, 387.43, 0.000, 0.000, 0.000, 20:59:06.267, 1582471746267
22, 909.05, 854.43, 789.47, 543.29, 0.000, 0.000, 0.000, 20:59:06.267, 1582471746267
23, 829.84, 764.68, 610.02, 412.21, 0.000, 0.000, 0.000, 20:59:06.281, 1582471746281
24, 736.18, 687.09, 520.07, 323.39, 0.000, 0.000, 0.000, 20:59:06.281, 1582471746281
25, 838.31, 767.46, 661.45, 399.00, 0.000, 0.000, 0.000, 20:59:06.297, 1582471746297
26, 956.22, 887.72, 819.25, 570.22, 0.000, 0.000, 0.000, 20:59:06.297, 1582471746297
27, 781.87, 724.20, 591.05, 398.55, 0.000, 0.000, 0.000, 20:59:06.298, 1582471746298
28, 775.27, 719.74, 559.17, 351.11, 0.000, 0.000, 0.000, 20:59:06.298, 1582471746298
29, 814.44, 773.18, 628.96, 398.87, 0.000, 0.000, 0.000, 20:59:06.311, 1582471746311
30, 921.34, 862.97, 791.13, 549.36, 0.000, 0.000, 0.000, 20:59:06.311, 1582471746311
31, 850.60, 785.61, 644.55, 424.76, 0.000, 0.000, 0.000, 20:59:06.327, 1582471746327
32, 853.76, 792.45, 629.21, 399.54, 0.000, 0.000, 0.000, 20:59:06.327, 1582471746327
33, 894.78, 851.19, 723.75, 457.18, 0.000, 0.000, 0.000, 20:59:06.328, 1582471746328
34, 942.35, 915.15, 796.50, 590.07, 0.000, 0.000, 0.000, 20:59:06.328, 1582471746328
35, 816.41, 791.22, 625.55, 434.81, 0.000, 0.000, 0.000, 20:59:06.341, 1582471746341
36, 834.50, 799.21, 611.68, 397.20, 0.000, 0.000, 0.000, 20:59:06.341, 1582471746341
37, 907.10, 889.76, 719.32, 469.88, 0.000, 0.000, 0.000, 20:59:06.357, 1582471746357
38, 944.81, 934.84, 836.09, 601.63, 0.000, 0.000, 0.000, 20:59:06.357, 1582471746357
39, 858.44, 856.38, 647.15, 464.92, 0.000, 0.000, 0.000, 20:59:06.357, 1582471746357
40, 785.11, 816.15, 574.31, 391.04, 0.000, 0.000, 0.000, 20:59:06.357, 1582471746357
41, 873.65, 883.06, 714.49, 455.46, 0.000, 0.000, 0.000, 20:59:06.371, 1582471746371
42, 903.03, 930.57, 804.79, 564.71, 0.000, 0.000, 0.000, 20:59:06.371, 1582471746371
43, 829.93, 856.24, 647.20, 453.99, 0.000, 0.000, 0.000, 20:59:06.387, 1582471746387
44, 794.68, 835.87, 581.47, 365.97, 0.000, 0.000, 0.000, 20:59:06.387, 1582471746387
45, 860.49, 912.48, 685.54, 466.12, 0.000, 0.000, 0.000, 20:59:06.387, 1582471746387
46, 932.19, 980.69, 821.17, 589.39, 0.000, 0.000, 0.000, 20:59:06.387, 1582471746387
47, 859.63, 891.20, 666.33, 436.13, 0.000, 0.000, 0.000, 20:59:06.401, 1582471746401
48, 832.16, 887.33, 628.88, 406.81, 0.000, 0.000, 0.000, 20:59:06.401, 1582471746401
49, 871.14, 922.76, 697.65, 431.56, 0.000, 0.000, 0.000, 20:59:06.417, 1582471746417
50, 1000.60, 1041.25, 885.15, 607.70, 0.000, 0.000, 0.000, 20:59:06.417, 1582471746417
51, 914.21, 941.58, 743.36, 465.58, 0.000, 0.000, 0.000, 20:59:06.417, 1582471746417
52, 796.49, 870.59, 614.33, 376.75, 0.000, 0.000, 0.000, 20:59:06.417, 1582471746417
53, 840.79, 919.76, 680.73, 412.48, 0.000, 0.000, 0.000, 20:59:06.431, 1582471746431
54, 939.68, 1014.74, 835.38, 578.23, 0.000, 0.000, 0.000, 20:59:06.431, 1582471746431
55, 889.91, 945.97, 735.21, 488.39, 0.000, 0.000, 0.000, 20:59:06.447, 1582471746447
56, 810.80, 904.18, 617.40, 399.09, 0.000, 0.000, 0.000, 20:59:06.447, 1582471746447
57, 836.23, 935.95, 664.18, 412.89, 0.000, 0.000, 0.000, 20:59:06.447, 1582471746447
58, 950.94, 1031.35, 870.31, 606.01, 0.000, 0.000, 0.000, 20:59:06.447, 1582471746447
59, 858.59, 917.10, 711.34, 449.49, 0.000, 0.000, 0.000, 20:59:06.461, 1582471746461
60, 828.61, 896.67, 651.78, 407.66, 0.000, 0.000, 0.000, 20:59:06.461, 1582471746461
61, 857.49, 934.04, 679.63, 410.34, 0.000, 0.000, 0.000, 20:59:06.477, 1582471746477
62, 927.75, 1015.12, 821.55, 589.75, 0.000, 0.000, 0.000, 20:59:06.477, 1582471746477
63, 851.02, 917.50, 672.58, 484.04, 0.000, 0.000, 0.000, 20:59:06.477, 1582471746477
64, 827.43, 887.05, 624.87, 387.12, 0.000, 0.000, 0.000, 20:59:06.477, 1582471746477
65, 912.96, 975.68, 726.87, 479.52, 0.000, 0.000, 0.000, 20:59:06.491, 1582471746491
66, 955.98, 1000.48, 852.62, 576.55, 0.000, 0.000, 0.000, 20:59:06.491, 1582471746491
67, 854.92, 912.37, 677.34, 459.15, 0.000, 0.000, 0.000, 20:59:06.507, 1582471746507
68, 836.05, 876.74, 642.72, 400.59, 0.000, 0.000, 0.000, 20:59:06.507, 1582471746507
69, 923.86, 966.57, 723.64, 477.20, 0.000, 0.000, 0.000, 20:59:06.507, 1582471746507
70, 931.96, 964.25, 840.28, 590.26, 0.000, 0.000, 0.000, 20:59:06.507, 1582471746507
71, 840.71, 851.65, 690.99, 450.78, 0.000, 0.000, 0.000, 20:59:06.521, 1582471746521
72, 852.03, 869.93, 664.58, 429.62, 0.000, 0.000, 0.000, 20:59:06.521, 1582471746521
73, 831.22, 862.65, 658.18, 411.04, 0.000, 0.000, 0.000, 20:59:06.553, 1582471746553
74, 893.65, 914.62, 790.94, 527.96, 0.000, 0.000, 0.000, 20:59:06.553, 1582471746553
75, 820.48, 845.24, 626.71, 425.99, 0.000, 0.000, 0.000, 20:59:06.553, 1582471746553
76, 801.14, 829.37, 599.59, 393.79, 0.000, 0.000, 0.000, 20:59:06.553, 1582471746553
77, 855.93, 869.05, 717.70, 428.66, 0.000, 0.000, 0.000, 20:59:06.554, 1582471746554
78, 893.52, 933.51, 776.75, 551.70, 0.000, 0.000, 0.000, 20:59:06.554, 1582471746554
79, 801.66, 814.27, 617.29, 391.96, 0.000, 0.000, 0.000, 20:59:06.583, 1582471746583
80, 787.93, 831.73, 598.73, 380.71, 0.000, 0.000, 0.000, 20:59:06.583, 1582471746583
81, 805.21, 851.90, 614.21, 387.41, 0.000, 0.000, 0.000, 20:59:06.583, 1582471746583
82, 951.76, 996.48, 827.15, 610.48, 0.000, 0.000, 0.000, 20:59:06.583, 1582471746583
83, 870.98, 882.90, 675.36, 446.44, 0.000, 0.000, 0.000, 20:59:06.584, 1582471746584
84, 847.94, 860.37, 644.22, 395.57, 0.000, 0.000, 0.000, 20:59:06.584, 1582471746584
85, 910.55, 940.26, 729.43, 481.81, 0.000, 0.000, 0.000, 20:59:06.597, 1582471746597
86, 982.76, 999.77, 881.31, 616.83, 0.000, 0.000, 0.000, 20:59:06.597, 1582471746597
87, 837.31, 875.04, 690.75, 481.61, 0.000, 0.000, 0.000, 20:59:06.598, 1582471746598
88, 854.57, 864.54, 666.18, 411.51, 0.000, 0.000, 0.000, 20:59:06.598, 1582471746598
89, 941.68, 966.41, 772.06, 481.51, 0.000, 0.000, 0.000, 20:59:06.611, 1582471746611
90, 959.20, 1008.41, 859.00, 624.68, 0.000, 0.000, 0.000, 20:59:06.611, 1582471746611
91, 880.88, 896.71, 730.50, 493.44, 0.000, 0.000, 0.000, 20:59:06.627, 1582471746627
92, 886.27, 899.52, 721.28, 453.42, 0.000, 0.000, 0.000, 20:59:06.627, 1582471746627
93, 934.95, 976.63, 745.90, 511.88, 0.000, 0.000, 0.000, 20:59:06.627, 1582471746627
94, 971.55, 1006.17, 858.50, 590.61, 0.000, 0.000, 0.000, 20:59:06.627, 1582471746627
95, 906.84, 929.56, 721.73, 497.22, 0.000, 0.000, 0.000, 20:59:06.641, 1582471746641
96, 877.28, 910.90, 686.78, 451.41, 0.000, 0.000, 0.000, 20:59:06.641, 1582471746641
97, 898.39, 943.27, 729.63, 469.16, 0.000, 0.000, 0.000, 20:59:06.657, 1582471746657
98, 1005.82, 1032.71, 920.16, 631.94, 0.000, 0.000, 0.000, 20:59:06.657, 1582471746657
99, 916.93, 930.83, 779.76, 503.03, 0.000, 0.000, 0.000, 20:59:06.657, 1582471746657
100, 874.09, 921.93, 710.27, 460.42, 0.000, 0.000, 0.000, 20:59:06.657, 1582471746657
101, 931.15, 988.36, 761.27, 516.09, 0.000, 0.000, 0.000, 20:59:06.671, 1582471746671
102, 1030.96, 1058.55, 936.38, 664.87, 0.000, 0.000, 0.000, 20:59:06.671, 1582471746671
103, 921.75, 958.23, 770.06, 509.93, 0.000, 0.000, 0.000, 20:59:06.687, 1582471746687
104, 908.28, 962.53, 743.89, 500.57, 0.000, 0.000, 0.000, 20:59:06.687, 1582471746687
105, 947.42, 992.89, 776.15, 504.76, 0.000, 0.000, 0.000, 20:59:06.687, 1582471746687
106, 1085.88, 1128.71, 1004.17, 725.97, 0.000, 0.000, 0.000, 20:59:06.687, 1582471746687
107, 992.26, 1007.08, 839.82, 567.08, 0.000, 0.000, 0.000, 20:59:06.701, 1582471746701
108, 882.21, 928.19, 725.42, 477.43, 0.000, 0.000, 0.000, 20:59:06.701, 1582471746701
109, 909.49, 939.71, 796.30, 478.62, 0.000, 0.000, 0.000, 20:59:06.717, 1582471746717
110, 1031.21, 1041.69, 951.93, 636.08, 0.000, 0.000, 0.000, 20:59:06.717, 1582471746717
111, 958.19, 972.95, 819.45, 570.26, 0.000, 0.000, 0.000, 20:59:06.717, 1582471746717
112, 871.77, 901.18, 723.35, 472.01, 0.000, 0.000, 0.000, 20:59:06.717, 1582471746717
113, 927.08, 953.02, 786.99, 502.23, 0.000, 0.000, 0.000, 20:59:06.731, 1582471746731
114, 1039.19, 1062.99, 962.22, 687.01, 0.000, 0.000, 0.000, 20:59:06.731, 1582471746731
115, 964.57, 962.18, 831.11, 566.94, 0.000, 0.000, 0.000, 20:59:06.747, 1582471746747
116, 936.26, 933.69, 778.88, 503.11, 0.000, 0.000, 0.000, 20:59:06.747, 1582471746747
117, 998.14, 999.66, 862.03, 568.65, 0.000, 0.000, 0.000, 20:59:06.747, 1582471746747
118, 1080.83, 1054.87, 1004.72, 689.36, 0.000, 0.000, 0.000, 20:59:06.747, 1582471746747
119, 966.60, 939.43, 812.65, 541.14, 0.000, 0.000, 0.000, 20:59:06.761, 1582471746761
120, 1019.83, 975.87, 848.76, 548.78, 0.000, 0.000, 0.000, 20:59:06.761, 1582471746761
121, 990.56, 989.69, 833.52, 553.01, 0.000, 0.000, 0.000, 20:59:06.777, 1582471746777
122, 1091.75, 1074.79, 996.51, 712.40, 0.000, 0.000, 0.000, 20:59:06.777, 1582471746777
123, 986.35, 940.35, 867.75, 584.18, 0.000, 0.000, 0.000, 20:59:06.777, 1582471746777
124, 990.18, 955.33, 840.48, 560.40, 0.000, 0.000, 0.000, 20:59:06.777, 1582471746777
125, 971.49, 947.17, 831.96, 547.17, 0.000, 0.000, 0.000, 20:59:06.791, 1582471746791
126, 1109.44, 1064.94, 1038.76, 713.84, 0.000, 0.000, 0.000, 20:59:06.791, 1582471746791
127, 1070.73, 1015.47, 924.92, 639.13, 0.000, 0.000, 0.000, 20:59:06.807, 1582471746807
128, 1000.55, 946.17, 861.54, 561.79, 0.000, 0.000, 0.000, 20:59:06.807, 1582471746807
129, 1035.19, 971.72, 892.30, 565.24, 0.000, 0.000, 0.000, 20:59:06.807, 1582471746807
130, 1156.30, 1095.80, 1091.38, 770.04, 0.000, 0.000, 0.000, 20:59:06.807, 1582471746807
131, 1083.52, 999.50, 971.24, 668.91, 0.000, 0.000, 0.000, 20:59:06.821, 1582471746821
132, 1058.06, 964.94, 907.28, 588.58, 0.000, 0.000, 0.000, 20:59:06.821, 1582471746821
133, 1027.43, 959.25, 887.65, 557.83, 0.000, 0.000, 0.000, 20:59:06.837, 1582471746837
134, 1183.13, 1085.25, 1084.34, 761.27, 0.000, 0.000, 0.000, 20:59:06.837, 1582471746837
135, 1099.78, 1014.27, 927.61, 654.27, 0.000, 0.000, 0.000, 20:59:06.837, 1582471746837
136, 1028.21, 931.39, 875.98, 557.01, 0.000, 0.000, 0.000, 20:59:06.837, 1582471746837
137, 1055.66, 960.85, 894.83, 568.49, 0.000, 0.000, 0.000, 20:59:06.851, 1582471746851
138, 1204.05, 1102.46, 1098.96, 772.94, 0.000, 0.000, 0.000, 20:59:06.851, 1582471746851
139, 1048.38, 955.18, 918.12, 623.17, 0.000, 0.000, 0.000, 20:59:06.867, 1582471746867
140, 1014.07, 907.41, 863.61, 534.01, 0.000, 0.000, 0.000, 20:59:06.867, 1582471746867
141, 1031.05, 934.61, 877.32, 558.46, 0.000, 0.000, 0.000, 20:59:06.867, 1582471746867
142, 1183.09, 1059.65, 1093.74, 738.72, 0.000, 0.000, 0.000, 20:59:06.867, 1582471746867
143, 1111.82, 979.55, 950.48, 637.47, 0.000, 0.000, 0.000, 20:59:06.881, 1582471746881
144, 1024.16, 906.30, 836.15, 535.56, 0.000, 0.000, 0.000, 20:59:06.881, 1582471746881
145, 1039.97, 923.60, 874.96, 573.36, 0.000, 0.000, 0.000, 20:59:06.897, 1582471746897
146, 1192.00, 1049.48, 1112.61, 771.36, 0.000, 0.000, 0.000, 20:59:06.897, 1582471746897
147, 1083.18, 938.90, 946.70, 613.66, 0.000, 0.000, 0.000, 20:59:06.897, 1582471746897
148, 1039.77, 894.23, 885.67, 543.11, 0.000, 0.000, 0.000, 20:59:06.897, 1582471746897
149, 1097.70, 964.52, 931.46, 584.17, 0.000, 0.000, 0.000, 20:59:06.911, 1582471746911
150, 1190.08, 1044.38, 1101.95, 753.05, 0.000, 0.000, 0.000, 20:59:06.911, 1582471746911
151, 1083.15, 920.84, 935.41, 592.37, 0.000, 0.000, 0.000, 20:59:06.927, 1582471746927
152, 1048.88, 892.66, 882.80, 536.68, 0.000, 0.000, 0.000, 20:59:06.927, 1582471746927
153, 1072.92, 920.05, 883.96, 533.21, 0.000, 0.000, 0.000, 20:59:06.927, 1582471746927
154, 1178.53, 1024.88, 1075.26, 728.23, 0.000, 0.000, 0.000, 20:59:06.927, 1582471746927
155, 1060.38, 899.89, 907.31, 585.17, 0.000, 0.000, 0.000, 20:59:06.941, 1582471746941
156, 1004.05, 850.51, 825.53, 506.21, 0.000, 0.000, 0.000, 20:59:06.941, 1582471746941
157, 997.74, 848.27, 838.23, 490.66, 0.000, 0.000, 0.000, 20:59:06.957, 1582471746957
158, 1187.05, 1018.80, 1109.55, 729.25, 0.000, 0.000, 0.000, 20:59:06.957, 1582471746957
159, 1126.93, 954.01, 972.85, 613.42, 0.000, 0.000, 0.000, 20:59:06.957, 1582471746957
160, 1032.87, 874.11, 846.84, 512.35, 0.000, 0.000, 0.000, 20:59:06.957, 1582471746957
161, 1037.81, 881.44, 875.91, 514.01, 0.000, 0.000, 0.000, 20:59:06.971, 1582471746971
162, 1174.02, 1004.52, 1074.14, 706.18, 0.000, 0.000, 0.000, 20:59:06.971, 1582471746971
163, 1070.42, 901.06, 915.74, 580.34, 0.000, 0.000, 0.000, 20:59:06.987, 1582471746987
164, 1036.52, 861.84, 863.06, 507.00, 0.000, 0.000, 0.000, 20:59:06.987, 1582471746987
165, 1070.02, 896.09, 894.35, 515.67, 0.000, 0.000, 0.000, 20:59:06.987, 1582471746987
166, 1155.44, 988.60, 1076.41, 695.76, 0.000, 0.000, 0.000, 20:59:06.987, 1582471746987
167, 1047.08, 879.39, 890.45, 570.82, 0.000, 0.000, 0.000, 20:59:07.001, 1582471747001
168, 1014.28, 845.43, 830.22, 486.60, 0.000, 0.000, 0.000, 20:59:07.001, 1582471747001
169, 1007.67, 842.92, 843.05, 476.90, 0.000, 0.000, 0.000, 20:59:07.033, 1582471747033
170, 1136.62, 970.52, 1049.80, 677.99, 0.000, 0.000, 0.000, 20:59:07.033, 1582471747033
171, 1083.07, 896.83, 926.97, 580.45, 0.000, 0.000, 0.000, 20:59:07.033, 1582471747033
172, 1023.95, 850.97, 832.54, 497.11, 0.000, 0.000, 0.000, 20:59:07.033, 1582471747033
173, 1028.90, 864.80, 849.25, 491.17, 0.000, 0.000, 0.000, 20:59:07.034, 1582471747034
174, 1149.07, 970.27, 1056.61, 685.57, 0.000, 0.000, 0.000, 20:59:07.034, 1582471747034
175, 1063.50, 878.38, 912.85, 572.52, 0.000, 0.000, 0.000, 20:59:07.047, 1582471747047
176, 1007.86, 840.82, 816.27, 486.42, 0.000, 0.000, 0.000, 20:59:07.047, 1582471747047
177, 1037.19, 863.66, 840.58, 477.91, 0.000, 0.000, 0.000, 20:59:07.047, 1582471747047
178, 1171.18, 987.30, 1061.10, 664.46, 0.000, 0.000, 0.000, 20:59:07.047, 1582471747047
179, 1044.41, 862.43, 890.59, 573.97, 0.000, 0.000, 0.000, 20:59:07.077, 1582471747077
180, 1019.85, 831.25, 824.89, 477.37, 0.000, 0.000, 0.000, 20:59:07.077, 1582471747077
181, 992.50, 828.33, 797.51, 455.62, 0.000, 0.000, 0.000, 20:59:07.078, 1582471747078
182, 1168.04, 971.48, 1053.15, 666.59, 0.000, 0.000, 0.000, 20:59:07.078, 1582471747078
183, 1101.60, 888.71, 934.58, 584.13, 0.000, 0.000, 0.000, 20:59:07.079, 1582471747079
184, 1010.58, 819.39, 829.08, 476.69, 0.000, 0.000, 0.000, 20:59:07.079, 1582471747079
185, 1000.71, 814.52, 818.19, 444.91, 0.000, 0.000, 0.000, 20:59:07.091, 1582471747091
186, 1140.53, 949.77, 1024.50, 656.85, 0.000, 0.000, 0.000, 20:59:07.091, 1582471747091
187, 1050.67, 845.03, 882.07, 522.86, 0.000, 0.000, 0.000, 20:59:07.107, 1582471747107
188, 1013.41, 798.03, 817.44, 449.84, 0.000, 0.000, 0.000, 20:59:07.107, 1582471747107
189, 1028.18, 816.70, 828.14, 448.12, 0.000, 0.000, 0.000, 20:59:07.107, 1582471747107
190, 1152.95, 940.83, 1032.46, 660.37, 0.000, 0.000, 0.000, 20:59:07.107, 1582471747107
191, 1089.37, 860.37, 923.09, 562.00, 0.000, 0.000, 0.000, 20:59:07.121, 1582471747121
192, 1011.14, 801.97, 794.87, 446.48, 0.000, 0.000, 0.000, 20:59:07.121, 1582471747121
193, 987.07, 783.25, 759.38, 420.13, 0.000, 0.000, 0.000, 20:59:07.137, 1582471747137
194, 1120.06, 916.44, 991.11, 629.21, 0.000, 0.000, 0.000, 20:59:07.137, 1582471747137
195, 1054.98, 835.53, 874.97, 537.09, 0.000, 0.000, 0.000, 20:59:07.137, 1582471747137
196, 1014.11, 792.05, 793.87, 449.09, 0.000, 0.000, 0.000, 20:59:07.137, 1582471747137
197, 1034.84, 821.09, 827.45, 448.86, 0.000, 0.000, 0.000, 20:59:07.151, 1582471747151
198, 1202.95, 957.78, 1071.92, 661.75, 0.000, 0.000, 0.000, 20:59:07.151, 1582471747151
199, 1103.14, 854.21, 919.09, 565.66, 0.000, 0.000, 0.000, 20:59:07.167, 1582471747167
200, 964.09, 766.72, 732.10, 418.07, 0.000, 0.000, 0.000, 20:59:07.167, 1582471747167
0, 1019.52, 798.29, 795.89, 433.02, 0.000, 0.000, 0.000, 20:59:07.168, 1582471747168
1, 1196.05, 952.47, 1083.75, 662.78, 0.000, 0.000, 0.000, 20:59:07.182, 1582471747182
2, 1072.78, 847.24, 879.20, 555.67, 0.000, 0.000, 0.000, 20:59:07.182, 1582471747182
3, 1039.63, 802.91, 811.97, 463.17, 0.000, 0.000, 0.000, 20:59:07.182, 1582471747182
4, 1013.70, 777.88, 780.52, 417.25, 0.000, 0.000, 0.000, 20:59:07.182, 1582471747182
5, 1156.74, 923.38, 1008.57, 639.32, 0.000, 0.000, 0.000, 20:59:07.196, 1582471747196
6, 1143.75, 868.72, 944.99, 559.29, 0.000, 0.000, 0.000, 20:59:07.196, 1582471747196
7, 1011.66, 770.28, 796.22, 454.74, 0.000, 0.000, 0.000, 20:59:07.212, 1582471747212
8, 1018.80, 783.50, 767.95, 427.64, 0.000, 0.000, 0.000, 20:59:07.212, 1582471747212
9, 1186.80, 930.04, 1071.58, 644.66, 0.000, 0.000, 0.000, 20:59:07.212, 1582471747212
10, 1091.47, 824.65, 904.21, 536.90, 0.000, 0.000, 0.000, 20:59:07.212, 1582471747212
11, 1032.43, 774.78, 794.88, 438.97, 0.000, 0.000, 0.000, 20:59:07.226, 1582471747226
12, 1045.66, 789.80, 805.27, 416.72, 0.000, 0.000, 0.000, 20:59:07.226, 1582471747226
13, 1146.80, 907.17, 1018.06, 598.62, 0.000, 0.000, 0.000, 20:59:07.242, 1582471747242
14, 1072.93, 824.47, 881.80, 513.54, 0.000, 0.000, 0.000, 20:59:07.242, 1582471747242
15, 1032.01, 772.22, 791.43, 428.36, 0.000, 0.000, 0.000, 20:59:07.242, 1582471747242
16, 1050.12, 779.25, 816.12, 415.05, 0.000, 0.000, 0.000, 20:59:07.242, 1582471747242
17, 1205.46, 945.58, 1071.46, 658.28, 0.000, 0.000, 0.000, 20:59:07.273, 1582471747273
18, 1068.06, 817.72, 863.90, 527.38, 0.000, 0.000, 0.000, 20:59:07.273, 1582471747273
19, 1023.14, 756.72, 793.15, 411.30, 0.000, 0.000, 0.000, 20:59:07.273, 1582471747273
20, 1004.36, 742.11, 748.59, 363.25, 0.000, 0.000, 0.000, 20:59:07.273, 1582471747273
21, 1142.72, 898.27, 1004.18, 593.44, 0.000, 0.000, 0.000, 20:59:07.274, 1582471747274
22, 1097.79, 833.78, 911.11, 527.31, 0.000, 0.000, 0.000, 20:59:07.274, 1582471747274
23, 996.44, 745.26, 777.25, 394.38, 0.000, 0.000, 0.000, 20:59:07.286, 1582471747286
24, 1011.52, 756.31, 766.11, 377.53, 0.000, 0.000, 0.000, 20:59:07.286, 1582471747286
25, 1182.16, 917.24, 1057.37, 612.47, 0.000, 0.000, 0.000, 20:59:07.302, 1582471747302
26, 1128.87, 851.52, 936.38, 541.27, 0.000, 0.000, 0.000, 20:59:07.302, 1582471747302
27, 1027.29, 767.64, 791.94, 411.03, 0.000, 0.000, 0.000, 20:59:07.302, 1582471747302
28, 987.55, 737.70, 754.66, 363.37, 0.000, 0.000, 0.000, 20:59:07.302, 1582471747302
29, 1147.42, 889.90, 1026.24, 593.77, 0.000, 0.000, 0.000, 20:59:07.316, 1582471747316
30, 1101.62, 822.83, 913.64, 546.55, 0.000, 0.000, 0.000, 20:59:07.316, 1582471747316
31, 1014.24, 739.34, 792.38, 395.99, 0.000, 0.000, 0.000, 20:59:07.348, 1582471747348
32, 1010.77, 740.44, 775.89, 367.96, 0.000, 0.000, 0.000, 20:59:07.348, 1582471747348
33, 1182.03, 910.32, 1054.50, 605.32, 0.000, 0.000, 0.000, 20:59:07.348, 1582471747348
34, 1096.18, 825.99, 890.55, 514.84, 0.000, 0.000, 0.000, 20:59:07.348, 1582471747348
35, 1027.51, 749.59, 782.25, 397.90, 0.000, 0.000, 0.000, 20:59:07.349, 1582471747349
36, 975.64, 713.84, 736.08, 345.55, 0.000, 0.000, 0.000, 20:59:07.349, 1582471747349
37, 1156.63, 881.03, 1027.16, 582.50, 0.000, 0.000, 0.000, 20:59:07.362, 1582471747362
38, 1079.83, 801.90, 895.18, 498.98, 0.000, 0.000, 0.000, 20:59:07.362, 1582471747362
39, 1033.50, 744.06, 784.56, 369.04, 0.000, 0.000, 0.000, 20:59:07.362, 1582471747362
40, 1018.99, 723.40, 766.90, 329.41, 0.000, 0.000, 0.000, 20:59:07.362, 1582471747362
41, 1171.89, 885.60, 1051.67, 567.42, 0.000, 0.000, 0.000, 20:59:07.376, 1582471747376
42, 1063.80, 779.06, 876.65, 480.29, 0.000, 0.000, 0.000, 20:59:07.376, 1582471747376
43, 1012.47, 712.91, 773.06, 387.44, 0.000, 0.000, 0.000, 20:59:07.392, 1582471747392
44, 969.99, 696.49, 713.31, 328.42, 0.000, 0.000, 0.000, 20:59:07.392, 1582471747392
45, 1106.62, 837.48, 965.15, 538.42, 0.000, 0.000, 0.000, 20:59:07.392, 1582471747392
46, 1064.92, 780.52, 859.35, 477.27, 0.000, 0.000, 0.000, 20:59:07.392, 1582471747392
47, 990.80, 712.71, 755.82, 349.25, 0.000, 0.000, 0.000, 20:59:07.406, 1582471747406
48, 964.86, 684.32, 731.81, 297.85, 0.000, 0.000, 0.000, 20:59:07.406, 1582471747406
49, 1082.93, 820.91, 957.20, 510.61, 0.000, 0.000, 0.000, 20:59:07.422, 1582471747422
50, 1038.91, 756.27, 845.43, 445.32, 0.000, 0.000, 0.000, 20:59:07.422, 1582471747422
51, 977.47, 696.65, 729.71, 321.01, 0.000, 0.000, 0.000, 20:59:07.422, 1582471747422
52, 960.35, 675.56, 677.32, 260.73, 0.000, 0.000, 0.000, 20:59:07.422, 1582471747422
53, 1095.24, 824.73, 938.62, 481.85, 0.000, 0.000, 0.000, 20:59:07.436, 1582471747436
54, 1046.46, 758.15, 853.67, 454.25, 0.000, 0.000, 0.000, 20:59:07.436, 1582471747436
55, 981.34, 684.21, 736.36, 323.56, 0.000, 0.000, 0.000, 20:59:07.452, 1582471747452
56, 939.41, 651.56, 671.23, 226.05, 0.000, 0.000, 0.000, 20:59:07.452, 1582471747452
57, 1085.55, 810.28, 940.69, 479.69, 0.000, 0.000, 0.000, 20:59:07.453, 1582471747453
58, 1051.63, 748.06, 881.05, 443.62, 0.000, 0.000, 0.000, 20:59:07.453, 1582471747453
59, 1044.36, 715.22, 814.06, 343.16, 0.000, 0.000, 0.000, 20:59:07.466, 1582471747466
60, 983.35, 667.80, 707.93, 259.92, 0.000, 0.000, 0.000, 20:59:07.466, 1582471747466
61, 1100.56, 814.27, 953.16, 486.97, 0.000, 0.000, 0.000, 20:59:07.482, 1582471747482
62, 1091.88, 781.55, 912.04, 471.49, 0.000, 0.000, 0.000, 20:59:07.482, 1582471747482
63, 992.00, 684.57, 768.57, 321.17, 0.000, 0.000, 0.000, 20:59:07.482, 1582471747482
64, 934.58, 643.62, 662.71, 253.90, 0.000, 0.000, 0.000, 20:59:07.482, 1582471747482
65, 1095.96, 796.65, 968.15, 489.49, 0.000, 0.000, 0.000, 20:59:07.496, 1582471747496
66, 1082.26, 769.42, 880.81, 475.44, 0.000, 0.000, 0.000, 20:59:07.496, 1582471747496
67, 981.70, 679.95, 727.64, 309.39, 0.000, 0.000, 0.000, 20:59:07.512, 1582471747512
68, 937.44, 627.37, 675.06, 231.57, 0.000, 0.000, 0.000, 20:59:07.512, 1582471747512
69, 1103.40, 788.48, 958.49, 467.70, 0.000, 0.000, 0.000, 20:59:07.512, 1582471747512
70, 1055.78, 741.18, 868.45, 431.39, 0.000, 0.000, 0.000, 20:59:07.512, 1582471747512
71, 985.79, 668.97, 745.96, 311.50, 0.000, 0.000, 0.000, 20:59:07.526, 1582471747526
72, 984.81, 662.04, 709.15, 261.30, 0.000, 0.000, 0.000, 20:59:07.526, 1582471747526
73, 1129.05, 808.68, 978.51, 507.97, 0.000, 0.000, 0.000, 20:59:07.542, 1582471747542
74, 1096.96, 752.68, 914.85, 442.11, 0.000, 0.000, 0.000, 20:59:07.542, 1582471747542
75, 1028.66, 683.09, 774.94, 308.49, 0.000, 0.000, 0.000, 20:59:07.542, 1582471747542
76, 993.35, 666.77, 727.77, 259.74, 0.000, 0.000, 0.000, 20:59:07.542, 1582471747542
77, 1170.01, 844.37, 979.26, 497.38, 0.000, 0.000, 0.000, 20:59:07.556, 1582471747556
78, 1112.96, 753.71, 915.59, 414.35, 0.000, 0.000, 0.000, 20:59:07.556, 1582471747556
79, 1020.03, 669.87, 795.80, 296.02, 0.000, 0.000, 0.000, 20:59:07.587, 1582471747587
80, 986.97, 664.74, 717.55, 256.00, 0.000, 0.000, 0.000, 20:59:07.587, 1582471747587
81, 1121.13, 809.23, 957.33, 500.13, 0.000, 0.000, 0.000, 20:59:07.588, 1582471747588
82, 1061.50, 718.98, 876.65, 412.95, 0.000, 0.000, 0.000, 20:59:07.588, 1582471747588
83, 1008.97, 664.31, 735.66, 285.82, 0.000, 0.000, 0.000, 20:59:07.589, 1582471747589
84, 958.56, 621.18, 698.28, 228.24, 0.000, 0.000, 0.000, 20:59:07.589, 1582471747589
85, 1117.42, 785.83, 972.41, 460.48, 0.000, 0.000, 0.000, 20:59:07.602, 1582471747602
86, 1077.89, 732.13, 873.74, 410.28, 0.000, 0.000, 0.000, 20:59:07.602, 1582471747602
87, 1016.70, 667.43, 774.77, 284.13, 0.000, 0.000, 0.000, 20:59:07.603, 1582471747603
88, 976.56, 635.08, 715.46, 243.37, 0.000, 0.000, 0.000, 20:59:07.603, 1582471747603
89, 1097.62, 767.37, 942.05, 434.42, 0.000, 0.000, 0.000, 20:59:07.616, 1582471747616
90, 1086.80, 729.89, 893.82, 427.11, 0.000, 0.000, 0.000, 20:59:07.616, 1582471747616
91, 1032.10, 667.82, 801.08, 274.01, 0.000, 0.000, 0.000, 20:59:07.632, 1582471747632
92, 1036.22, 677.39, 777.05, 255.53, 0.000, 0.000, 0.000, 20:59:07.632, 1582471747632
93, 1119.21, 790.91, 953.10, 454.33, 0.000, 0.000, 0.000, 20:59:07.632, 1582471747632
94, 1073.78, 722.20, 886.16, 384.25, 0.000, 0.000, 0.000, 20:59:07.632, 1582471747632
95, 1032.60, 664.81, 795.04, 284.38, 0.000, 0.000, 0.000, 20:59:07.646, 1582471747646
96, 1016.68, 651.82, 764.40, 251.89, 0.000, 0.000, 0.000, 20:59:07.646, 1582471747646
97, 1089.93, 760.92, 925.66, 419.44, 0.000, 0.000, 0.000, 20:59:07.662, 1582471747662
98, 1058.04, 713.02, 868.29, 387.95, 0.000, 0.000, 0.000, 20:59:07.662, 1582471747662
99, 1025.96, 662.04, 782.24, 279.39, 0.000, 0.000, 0.000, 20:59:07.662, 1582471747662
100, 981.27, 619.31, 713.74, 201.31, 0.000, 0.000, 0.000, 20:59:07.662, 1582471747662
101, 1115.98, 761.12, 956.69, 404.22, 0.000, 0.000, 0.000, 20:59:07.676, 1582471747676
102, 1068.53, 712.72, 898.00, 394.08, 0.000, 0.000, 0.000, 20:59:07.676, 1582471747676
103, 1017.00, 653.04, 783.85, 279.87, 0.000, 0.000, 0.000, 20:59:07.692, 1582471747692
104, 971.43, 612.49, 717.16, 196.63, 0.000, 0.000, 0.000, 20:59:07.692, 1582471747692
105, 1104.14, 746.68, 944.43, 409.06, 0.000, 0.000, 0.000, 20:59:07.693, 1582471747693
106, 1097.27, 731.22, 919.52, 408.61, 0.000, 0.000, 0.000, 20:59:07.693, 1582471747693
107, 1070.23, 680.79, 855.12, 296.92, 0.000, 0.000, 0.000, 20:59:07.706, 1582471747706
108, 1036.64, 642.32, 782.18, 219.80, 0.000, 0.000, 0.000, 20:59:07.706, 1582471747706
109, 1100.84, 749.72, 927.01, 403.08, 0.000, 0.000, 0.000, 20:59:07.722, 1582471747722
110, 1111.75, 739.96, 926.85, 420.03, 0.000, 0.000, 0.000, 20:59:07.722, 1582471747722
111, 1030.56, 650.02, 808.93, 280.35, 0.000, 0.000, 0.000, 20:59:07.723, 1582471747723
112, 966.31, 596.34, 726.18, 183.94, 0.000, 0.000, 0.000, 20:59:07.723, 1582471747723
113, 1092.81, 729.01, 944.03, 366.07, 0.000, 0.000, 0.000, 20:59:07.736, 1582471747736
114, 1122.83, 732.25, 938.34, 389.22, 0.000, 0.000, 0.000, 20:59:07.736, 1582471747736
115, 1025.12, 645.40, 796.42, 277.95, 0.000, 0.000, 0.000, 20:59:07.752, 1582471747752
116, 1000.37, 595.87, 773.93, 202.47, 0.000, 0.000, 0.000, 20:59:07.752, 1582471747752
117, 1147.06, 761.29, 1017.87, 424.85, 0.000, 0.000, 0.000, 20:59:07.753, 1582471747753
118, 1091.49, 724.06, 932.58, 409.23, 0.000, 0.000, 0.000, 20:59:07.753, 1582471747753
119, 1040.23, 644.62, 823.76, 288.78, 0.000, 0.000, 0.000, 20:59:07.766, 1582471747766
120, 984.58, 591.54, 731.65, 169.71, 0.000, 0.000, 0.000, 20:59:07.766, 1582471747766
121, 1050.82, 673.29, 906.51, 341.81, 0.000, 0.000, 0.000, 20:59:07.782, 1582471747782
122, 1002.09, 633.35, 828.41, 323.49, 0.000, 0.000, 0.000, 20:59:07.782, 1582471747782
123, 944.92, 557.00, 729.50, 201.68, 0.000, 0.000, 0.000, 20:59:07.782, 1582471747782
124, 903.13, 515.61, 684.54, 138.19, 0.000, 0.000, 0.000, 20:59:07.782, 1582471747782
125, 974.71, 611.61, 820.03, 266.61, 0.000, 0.000, 0.000, 20:59:07.796, 1582471747796
126, 942.99, 577.95, 763.45, 250.24, 0.000, 0.000, 0.000, 20:59:07.796, 1582471747796
127, 868.50, 488.00, 641.87, 145.65, 0.000, 0.000, 0.000, 20:59:07.812, 1582471747812
128, 807.24, 429.27, 562.38, 33.14, 0.000, 0.000, 0.000, 20:59:07.812, 1582471747812
129, 906.51, 531.46, 754.63, 205.89, 0.000, 0.000, 0.000, 20:59:07.812, 1582471747812
130, 903.09, 504.68, 725.77, 207.72, 0.000, 0.000, 0.000, 20:59:07.812, 1582471747812
131, 832.41, 431.59, 615.83, 75.06, 0.000, 0.000, 0.000, 20:59:07.826, 1582471747826
132, 838.02, 416.03, 593.18, 26.81, 0.000, 0.000, 0.000, 20:59:07.826, 1582471747826
133, 935.82, 532.38, 776.51, 202.75, 0.000, 0.000, 0.000, 20:59:07.842, 1582471747842
134, 832.37, 448.34, 624.27, 147.66, 0.000, 0.000, 0.000, 20:59:07.842, 1582471747842
135, 775.03, 385.25, 554.17, 37.58, 0.000, 0.000, 0.000, 20:59:07.842, 1582471747842
136, 712.04, 344.78, 475.19, -38.39, 0.000, 0.000, 0.000, 20:59:07.842, 1582471747842
137, 912.06, 518.98, 762.79, 172.42, 0.000, 0.000, 0.000, 20:59:07.856, 1582471747856
138, 858.63, 479.65, 705.79, 170.26, 0.000, 0.000, 0.000, 20:59:07.856, 1582471747856
139, 790.30, 424.79, 579.55, 79.02, 0.000, 0.000, 0.000, 20:59:07.872, 1582471747872
140, 798.19, 421.81, 549.72, 24.23, 0.000, 0.000, 0.000, 20:59:07.872, 1582471747872
141, 943.66, 574.02, 781.02, 220.59, 0.000, 0.000, 0.000, 20:59:07.872, 1582471747872
142, 949.91, 565.27, 788.42, 238.18, 0.000, 0.000, 0.000, 20:59:07.872, 1582471747872
143, 893.46, 507.06, 700.17, 162.54, 0.000, 0.000, 0.000, 20:59:07.886, 1582471747886
144, 856.56, 463.56, 635.90, 86.98, 0.000, 0.000, 0.000, 20:59:07.886, 1582471747886
145, 970.37, 599.47, 802.96, 250.63, 0.000, 0.000, 0.000, 20:59:07.902, 1582471747902
146, 1030.55, 631.43, 841.68, 301.48, 0.000, 0.000, 0.000, 20:59:07.902, 1582471747902
147, 983.98, 569.29, 778.87, 211.35, 0.000, 0.000, 0.000, 20:59:07.902, 1582471747902
148, 929.46, 534.96, 694.62, 141.72, 0.000, 0.000, 0.000, 20:59:07.902, 1582471747902
149, 973.31, 602.10, 823.54, 262.76, 0.000, 0.000, 0.000, 20:59:07.916, 1582471747916
150, 1007.82, 616.56, 806.23, 285.41, 0.000, 0.000, 0.000, 20:59:07.916, 1582471747916
151, 986.88, 567.91, 746.86, 196.36, 0.000, 0.000, 0.000, 20:59:07.932, 1582471747932
152, 905.35, 513.44, 659.97, 129.00, 0.000, 0.000, 0.000, 20:59:07.932, 1582471747932
153, 1015.06, 642.06, 824.18, 286.57, 0.000, 0.000, 0.000, 20:59:07.932, 1582471747932
154, 1015.91, 617.33, 824.65, 288.42, 0.000, 0.000, 0.000, 20:59:07.932, 1582471747932
155, 957.35, 559.35, 719.68, 192.14, 0.000, 0.000, 0.000, 20:59:07.946, 1582471747946
156, 921.56, 535.01, 673.51, 149.71, 0.000, 0.000, 0.000, 20:59:07.946, 1582471747946
157, 1033.24, 657.84, 837.58, 295.50, 0.000, 0.000, 0.000, 20:59:07.962, 1582471747962
158, 1003.71, 605.09, 812.69, 265.83, 0.000, 0.000, 0.000, 20:59:07.962, 1582471747962
159, 999.81, 582.56, 779.97, 205.45, 0.000, 0.000, 0.000, 20:59:07.962, 1582471747962
160, 991.93, 564.73, 756.78, 161.64, 0.000, 0.000, 0.000, 20:59:07.962, 1582471747962
161, 985.68, 621.50, 790.36, 266.92, 0.000, 0.000, 0.000, 20:59:07.976, 1582471747976
162, 982.45, 608.13, 790.82, 274.57, 0.000, 0.000, 0.000, 20:59:07.976, 1582471747976
163, 949.18, 564.79, 720.38, 193.51, 0.000, 0.000, 0.000, 20:59:07.992, 1582471747992
164, 1015.58, 595.80, 758.92, 185.21, 0.000, 0.000, 0.000, 20:59:07.992, 1582471747992
165, 1046.07, 670.86, 836.95, 299.21, 0.000, 0.000, 0.000, 20:59:07.992, 1582471747992
166, 994.83, 611.92, 783.70, 274.73, 0.000, 0.000, 0.000, 20:59:07.992, 1582471747992
167, 944.97, 562.43, 721.88, 201.85, 0.000, 0.000, 0.000, 20:59:08.006, 1582471748006
168, 913.23, 537.41, 668.98, 145.67, 0.000, 0.000, 0.000, 20:59:08.006, 1582471748006
169, 1042.94, 659.71, 864.40, 302.45, 0.000, 0.000, 0.000, 20:59:08.022, 1582471748022
170, 1019.90, 636.36, 818.19, 305.61, 0.000, 0.000, 0.000, 20:59:08.022, 1582471748022
171, 972.84, 584.27, 748.26, 224.97, 0.000, 0.000, 0.000, 20:59:08.022, 1582471748022
172, 1172.26, 773.05, 1037.07, 452.22, 0.000, 0.000, 0.000, 20:59:08.022, 1582471748022
173, 1625.98, 1212.78, 1723.98, 1184.64, 0.000, 0.000, 0.000, 20:59:08.036, 1582471748036
174, 1017.35, 618.59, 797.86, 398.61, 0.000, 0.000, 0.000, 20:59:08.036, 1582471748036
175, 852.12, 471.50, 567.82, 94.88, 0.000, 0.000, 0.000, 20:59:08.052, 1582471748052
176, 996.56, 588.47, 771.98, 243.45, 0.000, 0.000, 0.000, 20:59:08.052, 1582471748052
177, 1053.88, 663.13, 859.96, 350.10, 0.000, 0.000, 0.000, 20:59:08.052, 1582471748052
178, 729.98, 361.63, 404.84, -66.05, 0.000, 0.000, 0.000, 20:59:08.052, 1582471748052
179, 784.78, 391.53, 485.83, -57.71, 0.000, 0.000, 0.000, 20:59:08.066, 1582471748066
180, 1009.52, 587.27, 807.48, 213.14, 0.000, 0.000, 0.000, 20:59:08.066, 1582471748066
181, 1020.29, 644.95, 848.76, 349.79, 0.000, 0.000, 0.000, 20:59:08.082, 1582471748082
182, 736.32, 380.29, 423.11, -40.42, 0.000, 0.000, 0.000, 20:59:08.082, 1582471748082
183, 783.50, 399.79, 479.36, -48.58, 0.000, 0.000, 0.000, 20:59:08.082, 1582471748082
184, 1002.00, 585.66, 776.49, 202.62, 0.000, 0.000, 0.000, 20:59:08.082, 1582471748082
185, 1023.68, 646.20, 875.30, 347.17, 0.000, 0.000, 0.000, 20:59:08.096, 1582471748096
186, 807.87, 436.94, 512.71, 27.45, 0.000, 0.000, 0.000, 20:59:08.096, 1582471748096
187, 846.83, 467.26, 568.98, 22.96, 0.000, 0.000, 0.000, 20:59:08.112, 1582471748112
188, 1019.14, 587.92, 798.07, 204.17, 0.000, 0.000, 0.000, 20:59:08.112, 1582471748112
189, 1141.97, 731.39, 985.21, 406.79, 0.000, 0.000, 0.000, 20:59:08.112, 1582471748112
190, 889.73, 513.10, 613.86, 130.14, 0.000, 0.000, 0.000, 20:59:08.112, 1582471748112
191, 797.03, 430.60, 511.44, 7.03, 0.000, 0.000, 0.000, 20:59:08.126, 1582471748126
192, 983.50, 583.15, 741.95, 188.66, 0.000, 0.000, 0.000, 20:59:08.126, 1582471748126
193, 1087.93, 704.23, 939.21, 405.37, 0.000, 0.000, 0.000, 20:59:08.142, 1582471748142
194, 893.71, 496.67, 639.96, 109.23, 0.000, 0.000, 0.000, 20:59:08.142, 1582471748142
195, 902.32, 495.61, 648.80, 86.18, 0.000, 0.000, 0.000, 20:59:08.142, 1582471748142
196, 1043.89, 623.47, 832.85, 254.14, 0.000, 0.000, 0.000, 20:59:08.142, 1582471748142
197, 1081.02, 710.94, 936.41, 414.92, 0.000, 0.000, 0.000, 20:59:08.156, 1582471748156
198, 855.28, 495.92, 579.96, 114.10, 0.000, 0.000, 0.000, 20:59:08.156, 1582471748156
199, 885.18, 494.91, 610.01, 75.29, 0.000, 0.000, 0.000, 20:59:08.172, 1582471748172
200, 1096.56, 651.73, 891.22, 275.29, 0.000, 0.000, 0.000, 20:59:08.172, 1582471748172
0, 1143.92, 746.47, 1004.30, 444.25, 0.000, 0.000, 0.000, 20:59:08.172, 1582471748172
1, 882.45, 510.01, 622.91, 151.84, 0.000, 0.000, 0.000, 20:59:08.187, 1582471748187
2, 875.71, 485.13, 611.71, 73.37, 0.000, 0.000, 0.000, 20:59:08.187, 1582471748187
3, 1028.61, 604.48, 804.78, 221.78, 0.000, 0.000, 0.000, 20:59:08.187, 1582471748187
4, 1151.98, 734.60, 995.51, 429.77, 0.000, 0.000, 0.000, 20:59:08.187, 1582471748187
