%OpenBCI Raw EEG Data
%Number of channels = 4
%Sample Rate = 200.0 Hz
%First Column = SampleIndex
%Last Column = Timestamp 
%Other Columns = EEG data in microvolts followed by Accel Data (in G) interleaved with Aux Data
0, 792.64, 617.66, 2633.93, -1374.59, 0.000, 0.000, 0.000, 20:52:33.118, 1582471353118
1, 801.69, 636.19, 2633.75, -1769.99, 0.000, 0.000, 0.000, 20:52:33.119, 1582471353119
2, 768.40, 628.04, 2566.21, -1923.41, 0.000, 0.000, 0.000, 20:52:33.119, 1582471353119
3, 834.99, 661.59, 2623.71, -1915.94, 0.000, 0.000, 0.000, 20:52:33.132, 1582471353132
4, 816.65, 646.04, 2514.68, -1950.33, 0.000, 0.000, 0.000, 20:52:33.132, 1582471353132
5, 807.14, 649.04, 2461.94, -1958.51, 0.000, 0.000, 0.000, 20:52:33.148, 1582471353148
6, 826.01, 657.49, 2481.15, -1936.36, 0.000, 0.000, 0.000, 20:52:33.148, 1582471353148
7, 858.33, 676.97, 2498.24, -1880.55, 0.000, 0.000, 0.000, 20:52:33.149, 1582471353149
8, 825.51, 645.34, 2395.27, -1876.18, 0.000, 0.000, 0.000, 20:52:33.149, 1582471353149
9, 813.10, 648.98, 2347.82, -1867.18, 0.000, 0.000, 0.000, 20:52:33.162, 1582471353162
10, 844.30, 685.75, 2347.91, -1829.72, 0.000, 0.000, 0.000, 20:52:33.162, 1582471353162
11, 919.52, 711.60, 2421.02, -1737.67, 0.000, 0.000, 0.000, 20:52:33.178, 1582471353178
12, 848.63, 653.53, 2306.53, -1748.90, 0.000, 0.000, 0.000, 20:52:33.178, 1582471353178
13, 810.18, 628.53, 2223.88, -1761.79, 0.000, 0.000, 0.000, 20:52:33.179, 1582471353179
14, 843.13, 660.94, 2262.24, -1709.53, 0.000, 0.000, 0.000, 20:52:33.179, 1582471353179
15, 948.40, 719.49, 2352.56, -1599.87, 0.000, 0.000, 0.000, 20:52:33.193, 1582471353193
16, 809.38, 630.45, 2131.89, -1649.33, 0.000, 0.000, 0.000, 20:52:33.193, 1582471353193
17, 800.73, 614.23, 2098.80, -1645.97, 0.000, 0.000, 0.000, 20:52:33.208, 1582471353208
18, 829.68, 648.93, 2096.97, -1608.37, 0.000, 0.000, 0.000, 20:52:33.209, 1582471353209
19, 886.97, 677.63, 2172.10, -1516.55, 0.000, 0.000, 0.000, 20:52:33.223, 1582471353223
20, 821.66, 627.72, 2024.25, -1542.21, 0.000, 0.000, 0.000, 20:52:33.223, 1582471353223
21, 834.28, 640.43, 2013.15, -1517.46, 0.000, 0.000, 0.000, 20:52:33.224, 1582471353224
22, 899.65, 690.13, 2053.20, -1456.92, 0.000, 0.000, 0.000, 20:52:33.224, 1582471353224
23, 886.23, 668.17, 2057.98, -1408.50, 0.000, 0.000, 0.000, 20:52:33.238, 1582471353238
24, 813.91, 612.86, 1925.08, -1428.68, 0.000, 0.000, 0.000, 20:52:33.238, 1582471353238
25, 831.78, 612.14, 1926.24, -1409.75, 0.000, 0.000, 0.000, 20:52:33.239, 1582471353239
26, 849.23, 641.39, 1916.71, -1379.13, 0.000, 0.000, 0.000, 20:52:33.239, 1582471353239
27, 898.26, 676.87, 1958.56, -1300.56, 0.000, 0.000, 0.000, 20:52:33.252, 1582471353252
28, 834.66, 618.68, 1831.26, -1323.19, 0.000, 0.000, 0.000, 20:52:33.252, 1582471353252
29, 812.78, 595.00, 1806.55, -1319.11, 0.000, 0.000, 0.000, 20:52:33.268, 1582471353268
30, 865.82, 656.06, 1835.36, -1276.00, 0.000, 0.000, 0.000, 20:52:33.268, 1582471353268
31, 876.66, 637.19, 1871.05, -1215.39, 0.000, 0.000, 0.000, 20:52:33.269, 1582471353269
32, 824.68, 593.90, 1740.27, -1228.16, 0.000, 0.000, 0.000, 20:52:33.269, 1582471353269
33, 813.87, 594.32, 1705.80, -1222.04, 0.000, 0.000, 0.000, 20:52:33.283, 1582471353283
34, 821.79, 608.90, 1715.63, -1197.09, 0.000, 0.000, 0.000, 20:52:33.283, 1582471353283
35, 917.16, 675.08, 1810.36, -1099.92, 0.000, 0.000, 0.000, 20:52:33.298, 1582471353298
36, 853.21, 621.58, 1701.11, -1111.22, 0.000, 0.000, 0.000, 20:52:33.298, 1582471353298
37, 838.76, 608.76, 1653.62, -1124.36, 0.000, 0.000, 0.000, 20:52:33.299, 1582471353299
38, 862.85, 645.78, 1667.14, -1082.45, 0.000, 0.000, 0.000, 20:52:33.299, 1582471353299
39, 937.38, 680.21, 1770.18, -996.05, 0.000, 0.000, 0.000, 20:52:33.312, 1582471353312
40, 870.15, 633.21, 1621.19, -1013.25, 0.000, 0.000, 0.000, 20:52:33.312, 1582471353312
41, 831.94, 594.21, 1584.55, -1038.13, 0.000, 0.000, 0.000, 20:52:33.328, 1582471353328
42, 843.33, 621.18, 1563.95, -1020.41, 0.000, 0.000, 0.000, 20:52:33.328, 1582471353328
43, 917.37, 648.22, 1680.69, -931.84, 0.000, 0.000, 0.000, 20:52:33.328, 1582471353328
44, 826.50, 595.22, 1515.08, -960.21, 0.000, 0.000, 0.000, 20:52:33.328, 1582471353328
45, 828.03, 601.63, 1490.38, -956.54, 0.000, 0.000, 0.000, 20:52:33.343, 1582471353343
46, 861.67, 637.49, 1529.71, -917.35, 0.000, 0.000, 0.000, 20:52:33.343, 1582471353343
47, 945.27, 686.22, 1625.52, -830.41, 0.000, 0.000, 0.000, 20:52:33.358, 1582471353358
48, 861.43, 609.66, 1513.70, -853.16, 0.000, 0.000, 0.000, 20:52:33.358, 1582471353358
49, 832.94, 593.36, 1438.85, -876.29, 0.000, 0.000, 0.000, 20:52:33.359, 1582471353359
50, 861.97, 623.09, 1468.82, -850.77, 0.000, 0.000, 0.000, 20:52:33.359, 1582471353359
51, 929.41, 671.54, 1561.19, -763.86, 0.000, 0.000, 0.000, 20:52:33.372, 1582471353372
52, 853.76, 611.00, 1412.18, -787.14, 0.000, 0.000, 0.000, 20:52:33.372, 1582471353372
53, 861.74, 616.65, 1395.19, -795.49, 0.000, 0.000, 0.000, 20:52:33.388, 1582471353388
54, 860.75, 619.83, 1399.86, -785.53, 0.000, 0.000, 0.000, 20:52:33.388, 1582471353388
55, 966.47, 693.37, 1545.56, -677.27, 0.000, 0.000, 0.000, 20:52:33.389, 1582471353389
56, 880.36, 628.18, 1390.03, -705.24, 0.000, 0.000, 0.000, 20:52:33.389, 1582471353389
57, 853.60, 616.56, 1335.26, -724.73, 0.000, 0.000, 0.000, 20:52:33.402, 1582471353402
58, 819.86, 584.42, 1309.60, -741.60, 0.000, 0.000, 0.000, 20:52:33.402, 1582471353402
59, 923.40, 653.74, 1459.87, -638.74, 0.000, 0.000, 0.000, 20:52:33.418, 1582471353418
60, 900.64, 626.75, 1369.20, -635.33, 0.000, 0.000, 0.000, 20:52:33.418, 1582471353418
61, 896.79, 644.89, 1315.60, -642.45, 0.000, 0.000, 0.000, 20:52:33.419, 1582471353419
62, 851.81, 608.23, 1291.83, -666.53, 0.000, 0.000, 0.000, 20:52:33.419, 1582471353419
63, 932.45, 664.95, 1409.85, -567.29, 0.000, 0.000, 0.000, 20:52:33.432, 1582471353432
64, 874.31, 604.21, 1313.21, -583.28, 0.000, 0.000, 0.000, 20:52:33.432, 1582471353432
65, 866.42, 606.74, 1250.70, -607.09, 0.000, 0.000, 0.000, 20:52:33.448, 1582471353448
66, 892.10, 627.46, 1286.51, -594.77, 0.000, 0.000, 0.000, 20:52:33.448, 1582471353448
67, 950.96, 678.25, 1375.21, -510.58, 0.000, 0.000, 0.000, 20:52:33.449, 1582471353449
68, 872.28, 619.41, 1230.70, -533.93, 0.000, 0.000, 0.000, 20:52:33.449, 1582471353449
69, 857.02, 614.36, 1181.00, -562.01, 0.000, 0.000, 0.000, 20:52:33.462, 1582471353462
70, 860.60, 601.97, 1204.47, -562.12, 0.000, 0.000, 0.000, 20:52:33.462, 1582471353462
71, 941.64, 679.81, 1317.02, -465.70, 0.000, 0.000, 0.000, 20:52:33.478, 1582471353478
72, 958.18, 669.01, 1279.03, -444.79, 0.000, 0.000, 0.000, 20:52:33.478, 1582471353478
73, 833.63, 601.17, 1127.58, -518.48, 0.000, 0.000, 0.000, 20:52:33.479, 1582471353479
74, 861.12, 596.32, 1171.03, -507.65, 0.000, 0.000, 0.000, 20:52:33.479, 1582471353479
75, 923.84, 641.65, 1302.35, -427.63, 0.000, 0.000, 0.000, 20:52:33.492, 1582471353492
76, 890.22, 616.98, 1188.19, -430.46, 0.000, 0.000, 0.000, 20:52:33.492, 1582471353492
77, 834.17, 581.40, 1100.00, -480.50, 0.000, 0.000, 0.000, 20:52:33.508, 1582471353508
78, 871.98, 619.84, 1127.30, -464.75, 0.000, 0.000, 0.000, 20:52:33.508, 1582471353508
79, 960.50, 677.74, 1296.67, -362.93, 0.000, 0.000, 0.000, 20:52:33.509, 1582471353509
80, 925.65, 646.38, 1175.80, -369.62, 0.000, 0.000, 0.000, 20:52:33.509, 1582471353509
81, 886.04, 614.63, 1105.86, -411.41, 0.000, 0.000, 0.000, 20:52:33.523, 1582471353523
82, 905.63, 639.60, 1118.87, -407.30, 0.000, 0.000, 0.000, 20:52:33.523, 1582471353523
83, 981.66, 695.27, 1253.46, -318.88, 0.000, 0.000, 0.000, 20:52:33.538, 1582471353538
84, 883.42, 620.30, 1097.66, -353.79, 0.000, 0.000, 0.000, 20:52:33.538, 1582471353538
85, 867.24, 600.56, 1069.91, -389.56, 0.000, 0.000, 0.000, 20:52:33.538, 1582471353538
86, 868.28, 609.83, 1061.30, -391.34, 0.000, 0.000, 0.000, 20:52:33.538, 1582471353538
87, 967.14, 675.84, 1222.89, -291.66, 0.000, 0.000, 0.000, 20:52:33.552, 1582471353552
88, 915.25, 633.73, 1098.02, -310.27, 0.000, 0.000, 0.000, 20:52:33.552, 1582471353552
89, 861.19, 599.69, 1027.84, -351.77, 0.000, 0.000, 0.000, 20:52:33.568, 1582471353568
90, 840.44, 593.36, 993.46, -375.28, 0.000, 0.000, 0.000, 20:52:33.568, 1582471353568
91, 982.26, 717.36, 1174.23, -250.81, 0.000, 0.000, 0.000, 20:52:33.569, 1582471353569
92, 872.27, 603.91, 1047.84, -294.65, 0.000, 0.000, 0.000, 20:52:33.569, 1582471353569
93, 892.02, 620.62, 1023.40, -302.84, 0.000, 0.000, 0.000, 20:52:33.583, 1582471353583
94, 897.34, 630.41, 1039.27, -308.98, 0.000, 0.000, 0.000, 20:52:33.583, 1582471353583
95, 941.92, 661.39, 1132.83, -236.92, 0.000, 0.000, 0.000, 20:52:33.598, 1582471353598
96, 883.90, 620.34, 1020.86, -257.86, 0.000, 0.000, 0.000, 20:52:33.598, 1582471353598
97, 869.53, 606.32, 984.54, -281.81, 0.000, 0.000, 0.000, 20:52:33.599, 1582471353599
98, 891.31, 633.75, 995.55, -281.61, 0.000, 0.000, 0.000, 20:52:33.599, 1582471353599
99, 997.91, 709.64, 1178.95, -181.61, 0.000, 0.000, 0.000, 20:52:33.613, 1582471353613
100, 874.43, 617.75, 977.06, -232.91, 0.000, 0.000, 0.000, 20:52:33.613, 1582471353613
101, 863.80, 608.12, 928.91, -263.15, 0.000, 0.000, 0.000, 20:52:33.644, 1582471353644
102, 882.81, 619.59, 955.74, -257.59, 0.000, 0.000, 0.000, 20:52:33.644, 1582471353644
103, 974.32, 692.63, 1127.33, -158.65, 0.000, 0.000, 0.000, 20:52:33.644, 1582471353644
104, 948.23, 668.26, 1045.42, -157.50, 0.000, 0.000, 0.000, 20:52:33.644, 1582471353644
105, 893.19, 632.41, 930.83, -210.37, 0.000, 0.000, 0.000, 20:52:33.645, 1582471353645
106, 912.80, 645.11, 959.76, -217.91, 0.000, 0.000, 0.000, 20:52:33.645, 1582471353645
107, 971.76, 704.07, 1104.64, -129.09, 0.000, 0.000, 0.000, 20:52:33.658, 1582471353658
108, 911.23, 629.08, 968.78, -160.73, 0.000, 0.000, 0.000, 20:52:33.658, 1582471353658
109, 855.09, 584.98, 904.31, -208.44, 0.000, 0.000, 0.000, 20:52:33.659, 1582471353659
110, 886.43, 626.29, 911.05, -207.53, 0.000, 0.000, 0.000, 20:52:33.659, 1582471353659
111, 939.46, 673.36, 1046.44, -129.45, 0.000, 0.000, 0.000, 20:52:33.673, 1582471353673
112, 923.82, 644.23, 971.64, -126.59, 0.000, 0.000, 0.000, 20:52:33.673, 1582471353673
113, 859.71, 606.21, 874.08, -177.87, 0.000, 0.000, 0.000, 20:52:33.688, 1582471353688
114, 895.05, 635.77, 908.70, -174.46, 0.000, 0.000, 0.000, 20:52:33.688, 1582471353688
115, 978.09, 705.23, 1042.20, -84.43, 0.000, 0.000, 0.000, 20:52:33.689, 1582471353689
116, 974.76, 679.87, 1019.06, -69.44, 0.000, 0.000, 0.000, 20:52:33.689, 1582471353689
117, 883.37, 622.34, 879.04, -139.43, 0.000, 0.000, 0.000, 20:52:33.702, 1582471353702
118, 872.77, 625.46, 851.75, -155.83, 0.000, 0.000, 0.000, 20:52:33.702, 1582471353702
119, 972.25, 697.02, 1024.08, -56.52, 0.000, 0.000, 0.000, 20:52:33.718, 1582471353718
120, 931.76, 658.49, 955.99, -60.05, 0.000, 0.000, 0.000, 20:52:33.718, 1582471353718
121, 947.78, 657.26, 937.95, -81.96, 0.000, 0.000, 0.000, 20:52:33.719, 1582471353719
122, 885.78, 629.18, 870.30, -125.77, 0.000, 0.000, 0.000, 20:52:33.719, 1582471353719
123, 955.46, 688.86, 1001.75, -47.80, 0.000, 0.000, 0.000, 20:52:33.732, 1582471353732
124, 947.04, 672.01, 917.25, -39.47, 0.000, 0.000, 0.000, 20:52:33.732, 1582471353732
125, 888.50, 629.87, 858.29, -90.35, 0.000, 0.000, 0.000, 20:52:33.748, 1582471353748
126, 905.84, 639.59, 871.69, -96.97, 0.000, 0.000, 0.000, 20:52:33.748, 1582471353748
127, 995.41, 719.33, 1007.31, -8.85, 0.000, 0.000, 0.000, 20:52:33.749, 1582471353749
128, 899.47, 636.46, 892.18, -40.05, 0.000, 0.000, 0.000, 20:52:33.749, 1582471353749
129, 932.72, 668.77, 869.44, -50.35, 0.000, 0.000, 0.000, 20:52:33.762, 1582471353762
130, 921.32, 646.62, 892.50, -70.48, 0.000, 0.000, 0.000, 20:52:33.762, 1582471353762
131, 958.23, 682.35, 974.36, -8.66, 0.000, 0.000, 0.000, 20:52:33.778, 1582471353778
132, 967.13, 678.21, 930.09, 5.66, 0.000, 0.000, 0.000, 20:52:33.778, 1582471353778
133, 979.04, 683.53, 931.75, -1.00, 0.000, 0.000, 0.000, 20:52:33.779, 1582471353779
134, 903.64, 636.16, 857.94, -62.11, 0.000, 0.000, 0.000, 20:52:33.779, 1582471353779
135, 987.29, 696.60, 1010.74, 18.88, 0.000, 0.000, 0.000, 20:52:33.792, 1582471353792
136, 920.73, 662.54, 862.48, 5.84, 0.000, 0.000, 0.000, 20:52:33.792, 1582471353792
137, 900.22, 638.03, 822.19, -34.27, 0.000, 0.000, 0.000, 20:52:33.808, 1582471353808
138, 913.47, 659.71, 808.96, -52.36, 0.000, 0.000, 0.000, 20:52:33.808, 1582471353808
139, 954.69, 668.31, 976.50, 12.79, 0.000, 0.000, 0.000, 20:52:33.808, 1582471353808
140, 944.57, 662.82, 886.05, 21.99, 0.000, 0.000, 0.000, 20:52:33.808, 1582471353808
141, 884.48, 613.47, 802.67, -37.94, 0.000, 0.000, 0.000, 20:52:33.823, 1582471353823
142, 926.53, 654.31, 843.70, -27.71, 0.000, 0.000, 0.000, 20:52:33.823, 1582471353823
143, 976.46, 690.45, 988.57, 43.67, 0.000, 0.000, 0.000, 20:52:33.838, 1582471353838
144, 930.57, 664.17, 845.43, 25.78, 0.000, 0.000, 0.000, 20:52:33.838, 1582471353838
145, 877.83, 597.69, 807.50, -34.02, 0.000, 0.000, 0.000, 20:52:33.839, 1582471353839
146, 922.72, 644.24, 831.68, -21.96, 0.000, 0.000, 0.000, 20:52:33.839, 1582471353839
147, 970.05, 697.52, 950.33, 49.71, 0.000, 0.000, 0.000, 20:52:33.853, 1582471353853
148, 941.43, 649.46, 892.49, 49.38, 0.000, 0.000, 0.000, 20:52:33.853, 1582471353853
149, 876.28, 607.55, 786.55, -16.29, 0.000, 0.000, 0.000, 20:52:33.868, 1582471353868
150, 910.16, 642.40, 816.30, -4.05, 0.000, 0.000, 0.000, 20:52:33.868, 1582471353868
151, 1020.55, 725.16, 993.86, 95.96, 0.000, 0.000, 0.000, 20:52:33.869, 1582471353869
152, 967.95, 683.99, 894.40, 78.69, 0.000, 0.000, 0.000, 20:52:33.869, 1582471353869
153, 936.33, 657.96, 809.50, 28.90, 0.000, 0.000, 0.000, 20:52:33.883, 1582471353883
154, 926.69, 663.90, 812.97, 18.26, 0.000, 0.000, 0.000, 20:52:33.883, 1582471353883
155, 953.68, 672.00, 935.91, 67.08, 0.000, 0.000, 0.000, 20:52:33.898, 1582471353898
156, 939.95, 649.85, 857.98, 70.57, 0.000, 0.000, 0.000, 20:52:33.898, 1582471353898
157, 952.64, 671.64, 827.14, 55.85, 0.000, 0.000, 0.000, 20:52:33.899, 1582471353899
158, 909.83, 651.37, 793.05, 21.00, 0.000, 0.000, 0.000, 20:52:33.899, 1582471353899
159, 970.09, 701.87, 909.47, 89.17, 0.000, 0.000, 0.000, 20:52:33.912, 1582471353912
160, 954.32, 660.26, 867.29, 96.70, 0.000, 0.000, 0.000, 20:52:33.912, 1582471353912
161, 959.33, 675.53, 834.83, 73.00, 0.000, 0.000, 0.000, 20:52:33.928, 1582471353928
162, 919.63, 650.08, 807.54, 39.91, 0.000, 0.000, 0.000, 20:52:33.928, 1582471353928
163, 966.38, 697.36, 896.78, 97.54, 0.000, 0.000, 0.000, 20:52:33.929, 1582471353929
164, 945.58, 668.24, 849.23, 103.61, 0.000, 0.000, 0.000, 20:52:33.929, 1582471353929
165, 885.92, 624.23, 755.66, 43.44, 0.000, 0.000, 0.000, 20:52:33.943, 1582471353943
166, 921.80, 644.52, 798.76, 47.44, 0.000, 0.000, 0.000, 20:52:33.943, 1582471353943
167, 991.92, 715.13, 925.87, 120.12, 0.000, 0.000, 0.000, 20:52:33.958, 1582471353958
168, 942.77, 665.75, 828.37, 114.93, 0.000, 0.000, 0.000, 20:52:33.958, 1582471353958
169, 895.24, 621.76, 761.82, 52.39, 0.000, 0.000, 0.000, 20:52:33.959, 1582471353959
170, 902.89, 626.49, 784.30, 44.74, 0.000, 0.000, 0.000, 20:52:33.959, 1582471353959
171, 1004.57, 717.54, 935.02, 140.37, 0.000, 0.000, 0.000, 20:52:33.989, 1582471353989
172, 979.37, 697.65, 854.04, 144.09, 0.000, 0.000, 0.000, 20:52:33.989, 1582471353989
173, 941.79, 654.53, 804.49, 90.28, 0.000, 0.000, 0.000, 20:52:33.989, 1582471353989
174, 912.68, 659.11, 744.94, 59.58, 0.000, 0.000, 0.000, 20:52:33.989, 1582471353989
175, 992.22, 713.36, 897.75, 134.46, 0.000, 0.000, 0.000, 20:52:33.990, 1582471353990
176, 952.03, 669.55, 823.21, 135.04, 0.000, 0.000, 0.000, 20:52:33.990, 1582471353990
177, 948.03, 679.96, 775.04, 99.95, 0.000, 0.000, 0.000, 20:52:34.002, 1582471354002
178, 901.73, 637.35, 755.61, 64.11, 0.000, 0.000, 0.000, 20:52:34.002, 1582471354002
179, 973.36, 684.69, 905.40, 134.51, 0.000, 0.000, 0.000, 20:52:34.018, 1582471354018
180, 981.44, 687.74, 859.89, 166.93, 0.000, 0.000, 0.000, 20:52:34.018, 1582471354018
181, 938.49, 657.58, 783.81, 111.35, 0.000, 0.000, 0.000, 20:52:34.019, 1582471354019
182, 926.59, 649.11, 766.86, 81.39, 0.000, 0.000, 0.000, 20:52:34.019, 1582471354019
183, 1022.29, 735.23, 934.40, 172.89, 0.000, 0.000, 0.000, 20:52:34.032, 1582471354032
184, 996.51, 688.85, 881.68, 171.98, 0.000, 0.000, 0.000, 20:52:34.032, 1582471354032
185, 867.76, 618.53, 693.55, 78.28, 0.000, 0.000, 0.000, 20:52:34.048, 1582471354048
186, 874.87, 615.57, 702.90, 54.56, 0.000, 0.000, 0.000, 20:52:34.048, 1582471354048
187, 972.71, 695.02, 890.86, 150.92, 0.000, 0.000, 0.000, 20:52:34.049, 1582471354049
188, 951.19, 666.97, 816.78, 155.12, 0.000, 0.000, 0.000, 20:52:34.049, 1582471354049
189, 899.83, 636.12, 734.73, 100.34, 0.000, 0.000, 0.000, 20:52:34.062, 1582471354062
190, 908.05, 646.70, 723.68, 89.03, 0.000, 0.000, 0.000, 20:52:34.062, 1582471354062
191, 1002.62, 712.91, 910.33, 175.81, 0.000, 0.000, 0.000, 20:52:34.078, 1582471354078
192, 995.47, 697.80, 837.16, 185.79, 0.000, 0.000, 0.000, 20:52:34.078, 1582471354078
193, 967.98, 695.00, 783.14, 151.09, 0.000, 0.000, 0.000, 20:52:34.079, 1582471354079
194, 891.21, 638.27, 721.96, 98.95, 0.000, 0.000, 0.000, 20:52:34.079, 1582471354079
195, 989.22, 712.30, 890.26, 177.78, 0.000, 0.000, 0.000, 20:52:34.092, 1582471354092
196, 1001.65, 695.74, 870.20, 202.90, 0.000, 0.000, 0.000, 20:52:34.092, 1582471354092
197, 938.44, 651.79, 786.10, 142.68, 0.000, 0.000, 0.000, 20:52:34.108, 1582471354108
198, 911.08, 648.54, 728.90, 109.10, 0.000, 0.000, 0.000, 20:52:34.108, 1582471354108
199, 1027.59, 738.93, 911.83, 201.50, 0.000, 0.000, 0.000, 20:52:34.109, 1582471354109
200, 962.98, 672.13, 818.56, 179.31, 0.000, 0.000, 0.000, 20:52:34.109, 1582471354109
0, 908.64, 627.15, 739.97, 120.50, 0.000, 0.000, 0.000, 20:52:34.123, 1582471354123
1, 912.98, 630.77, 748.68, 103.79, 0.000, 0.000, 0.000, 20:52:34.124, 1582471354124
2, 997.08, 702.93, 906.92, 183.14, 0.000, 0.000, 0.000, 20:52:34.124, 1582471354124
3, 967.95, 691.11, 793.06, 193.50, 0.000, 0.000, 0.000, 20:52:34.137, 1582471354137
4, 937.78, 660.60, 755.08, 143.73, 0.000, 0.000, 0.000, 20:52:34.137, 1582471354137
5, 919.93, 643.01, 744.47, 122.49, 0.000, 0.000, 0.000, 20:52:34.169, 1582471354169
6, 1014.89, 720.33, 911.59, 204.27, 0.000, 0.000, 0.000, 20:52:34.169, 1582471354169
7, 967.07, 679.24, 842.70, 206.90, 0.000, 0.000, 0.000, 20:52:34.169, 1582471354169
8, 909.52, 644.80, 723.54, 144.45, 0.000, 0.000, 0.000, 20:52:34.169, 1582471354169
9, 922.87, 658.61, 729.25, 131.96, 0.000, 0.000, 0.000, 20:52:34.170, 1582471354170
10, 1040.77, 743.77, 922.17, 219.65, 0.000, 0.000, 0.000, 20:52:34.170, 1582471354170
11, 973.24, 686.50, 818.68, 213.40, 0.000, 0.000, 0.000, 20:52:34.199, 1582471354199
12, 939.03, 658.38, 748.33, 158.63, 0.000, 0.000, 0.000, 20:52:34.199, 1582471354199
13, 912.07, 631.37, 741.49, 129.85, 0.000, 0.000, 0.000, 20:52:34.199, 1582471354199
14, 1010.71, 728.90, 886.72, 210.32, 0.000, 0.000, 0.000, 20:52:34.199, 1582471354199
15, 950.86, 651.00, 817.34, 193.51, 0.000, 0.000, 0.000, 20:52:34.200, 1582471354200
16, 923.85, 644.80, 742.52, 155.25, 0.000, 0.000, 0.000, 20:52:34.200, 1582471354200
17, 936.60, 655.19, 749.13, 139.88, 0.000, 0.000, 0.000, 20:52:34.213, 1582471354213
18, 1035.10, 739.26, 907.22, 219.80, 0.000, 0.000, 0.000, 20:52:34.213, 1582471354213
19, 968.60, 679.95, 823.20, 210.70, 0.000, 0.000, 0.000, 20:52:34.214, 1582471354214
20, 899.17, 620.85, 732.45, 149.22, 0.000, 0.000, 0.000, 20:52:34.214, 1582471354214
21, 891.74, 628.54, 702.82, 123.08, 0.000, 0.000, 0.000, 20:52:34.227, 1582471354227
22, 1050.95, 755.03, 925.46, 239.09, 0.000, 0.000, 0.000, 20:52:34.227, 1582471354227
23, 1028.15, 721.01, 868.15, 241.56, 0.000, 0.000, 0.000, 20:52:34.243, 1582471354243
24, 929.02, 661.60, 732.46, 170.71, 0.000, 0.000, 0.000, 20:52:34.243, 1582471354243
25, 892.29, 638.81, 694.46, 135.25, 0.000, 0.000, 0.000, 20:52:34.244, 1582471354244
26, 1007.19, 727.13, 895.66, 230.59, 0.000, 0.000, 0.000, 20:52:34.244, 1582471354244
27, 1005.36, 721.19, 844.28, 248.20, 0.000, 0.000, 0.000, 20:52:34.257, 1582471354257
28, 934.95, 662.92, 741.68, 174.75, 0.000, 0.000, 0.000, 20:52:34.257, 1582471354257
29, 970.00, 692.82, 769.39, 179.94, 0.000, 0.000, 0.000, 20:52:34.273, 1582471354273
30, 976.49, 705.18, 856.30, 210.82, 0.000, 0.000, 0.000, 20:52:34.273, 1582471354273
31, 958.01, 668.02, 820.68, 215.04, 0.000, 0.000, 0.000, 20:52:34.274, 1582471354274
32, 946.63, 665.51, 757.94, 177.50, 0.000, 0.000, 0.000, 20:52:34.274, 1582471354274
33, 941.70, 670.62, 755.45, 155.51, 0.000, 0.000, 0.000, 20:52:34.287, 1582471354287
34, 1012.08, 734.51, 862.75, 214.94, 0.000, 0.000, 0.000, 20:52:34.287, 1582471354287
35, 951.09, 669.14, 796.45, 211.58, 0.000, 0.000, 0.000, 20:52:34.303, 1582471354303
36, 957.72, 680.05, 756.52, 182.10, 0.000, 0.000, 0.000, 20:52:34.303, 1582471354303
37, 904.89, 651.78, 699.97, 147.46, 0.000, 0.000, 0.000, 20:52:34.304, 1582471354304
38, 977.49, 703.82, 861.62, 212.73, 0.000, 0.000, 0.000, 20:52:34.304, 1582471354304
39, 958.27, 685.55, 794.18, 222.15, 0.000, 0.000, 0.000, 20:52:34.334, 1582471354334
40, 935.04, 653.40, 754.11, 177.28, 0.000, 0.000, 0.000, 20:52:34.334, 1582471354334
41, 895.03, 645.40, 683.63, 140.51, 0.000, 0.000, 0.000, 20:52:34.334, 1582471354334
42, 1009.03, 725.99, 868.43, 228.19, 0.000, 0.000, 0.000, 20:52:34.334, 1582471354334
43, 1013.95, 710.55, 874.93, 255.94, 0.000, 0.000, 0.000, 20:52:34.335, 1582471354335
44, 916.81, 654.17, 732.38, 173.30, 0.000, 0.000, 0.000, 20:52:34.335, 1582471354335
45, 913.57, 662.90, 692.57, 149.99, 0.000, 0.000, 0.000, 20:52:34.347, 1582471354347
46, 985.06, 730.27, 829.35, 212.29, 0.000, 0.000, 0.000, 20:52:34.347, 1582471354347
47, 963.29, 685.57, 816.79, 233.54, 0.000, 0.000, 0.000, 20:52:34.363, 1582471354363
48, 934.51, 657.72, 762.07, 191.54, 0.000, 0.000, 0.000, 20:52:34.363, 1582471354363
49, 956.25, 682.05, 751.42, 177.60, 0.000, 0.000, 0.000, 20:52:34.364, 1582471354364
50, 991.91, 734.63, 857.18, 224.01, 0.000, 0.000, 0.000, 20:52:34.364, 1582471354364
51, 975.27, 693.75, 825.08, 246.25, 0.000, 0.000, 0.000, 20:52:34.377, 1582471354377
52, 891.77, 632.86, 698.32, 173.99, 0.000, 0.000, 0.000, 20:52:34.377, 1582471354377
53, 895.34, 648.17, 684.70, 151.46, 0.000, 0.000, 0.000, 20:52:34.409, 1582471354409
54, 1002.05, 724.96, 884.00, 240.46, 0.000, 0.000, 0.000, 20:52:34.409, 1582471354409
55, 1052.00, 744.19, 907.29, 293.14, 0.000, 0.000, 0.000, 20:52:34.409, 1582471354409
56, 882.05, 636.25, 678.07, 178.11, 0.000, 0.000, 0.000, 20:52:34.409, 1582471354409
57, 902.52, 657.49, 681.25, 163.44, 0.000, 0.000, 0.000, 20:52:34.410, 1582471354410
58, 993.07, 713.27, 872.37, 239.05, 0.000, 0.000, 0.000, 20:52:34.410, 1582471354410
59, 957.56, 688.89, 790.10, 252.46, 0.000, 0.000, 0.000, 20:52:34.423, 1582471354423
60, 932.71, 664.18, 753.69, 207.84, 0.000, 0.000, 0.000, 20:52:34.423, 1582471354423
61, 922.40, 683.37, 687.73, 175.26, 0.000, 0.000, 0.000, 20:52:34.424, 1582471354424
62, 982.79, 711.93, 855.99, 230.55, 0.000, 0.000, 0.000, 20:52:34.424, 1582471354424
63, 979.71, 704.20, 805.56, 255.94, 0.000, 0.000, 0.000, 20:52:34.438, 1582471354438
64, 887.66, 639.53, 687.22, 182.20, 0.000, 0.000, 0.000, 20:52:34.438, 1582471354438
65, 872.40, 630.99, 666.61, 144.68, 0.000, 0.000, 0.000, 20:52:34.453, 1582471354453
66, 979.39, 717.12, 836.58, 223.69, 0.000, 0.000, 0.000, 20:52:34.453, 1582471354453
67, 959.77, 670.64, 807.87, 229.54, 0.000, 0.000, 0.000, 20:52:34.454, 1582471354454
68, 883.26, 612.91, 691.58, 160.88, 0.000, 0.000, 0.000, 20:52:34.454, 1582471354454
69, 888.12, 636.37, 682.30, 146.57, 0.000, 0.000, 0.000, 20:52:34.467, 1582471354467
70, 962.07, 668.13, 860.19, 196.96, 0.000, 0.000, 0.000, 20:52:34.467, 1582471354467
71, 836.12, 582.21, 679.88, 143.32, 0.000, 0.000, 0.000, 20:52:34.483, 1582471354483
72, 823.00, 555.72, 627.99, 102.03, 0.000, 0.000, 0.000, 20:52:34.483, 1582471354483
73, 760.69, 528.70, 548.10, 43.56, 0.000, 0.000, 0.000, 20:52:34.484, 1582471354484
74, 829.75, 586.26, 652.44, 85.45, 0.000, 0.000, 0.000, 20:52:34.484, 1582471354484
75, 771.37, 503.14, 634.51, 78.98, 0.000, 0.000, 0.000, 20:52:34.498, 1582471354498
76, 734.93, 479.39, 534.68, 31.46, 0.000, 0.000, 0.000, 20:52:34.498, 1582471354498
77, 742.73, 497.82, 528.57, 16.96, 0.000, 0.000, 0.000, 20:52:34.513, 1582471354513
78, 825.86, 573.10, 682.52, 94.57, 0.000, 0.000, 0.000, 20:52:34.513, 1582471354513
79, 847.38, 584.52, 691.44, 141.49, 0.000, 0.000, 0.000, 20:52:34.514, 1582471354514
80, 799.17, 539.95, 623.10, 91.01, 0.000, 0.000, 0.000, 20:52:34.514, 1582471354514
81, 819.11, 554.56, 643.70, 80.64, 0.000, 0.000, 0.000, 20:52:34.527, 1582471354527
82, 838.35, 598.19, 697.34, 123.67, 0.000, 0.000, 0.000, 20:52:34.527, 1582471354527
83, 887.44, 608.75, 738.32, 174.91, 0.000, 0.000, 0.000, 20:52:34.543, 1582471354543
84, 844.03, 587.10, 664.79, 146.50, 0.000, 0.000, 0.000, 20:52:34.543, 1582471354543
85, 909.83, 649.68, 700.14, 163.84, 0.000, 0.000, 0.000, 20:52:34.544, 1582471354544
86, 923.79, 669.36, 790.36, 191.48, 0.000, 0.000, 0.000, 20:52:34.544, 1582471354544
87, 963.87, 692.10, 787.74, 255.41, 0.000, 0.000, 0.000, 20:52:34.557, 1582471354557
88, 877.98, 617.29, 671.13, 180.26, 0.000, 0.000, 0.000, 20:52:34.557, 1582471354557
89, 887.42, 635.02, 693.56, 169.84, 0.000, 0.000, 0.000, 20:52:34.573, 1582471354573
90, 973.94, 700.72, 844.51, 233.75, 0.000, 0.000, 0.000, 20:52:34.573, 1582471354573
91, 979.10, 710.85, 821.34, 276.36, 0.000, 0.000, 0.000, 20:52:34.574, 1582471354574
92, 911.65, 660.56, 706.81, 215.58, 0.000, 0.000, 0.000, 20:52:34.574, 1582471354574
93, 922.72, 664.86, 726.19, 191.93, 0.000, 0.000, 0.000, 20:52:34.587, 1582471354587
94, 957.92, 714.56, 799.67, 233.95, 0.000, 0.000, 0.000, 20:52:34.587, 1582471354587
95, 987.37, 721.62, 826.97, 288.36, 0.000, 0.000, 0.000, 20:52:34.603, 1582471354603
96, 938.05, 681.22, 725.31, 235.38, 0.000, 0.000, 0.000, 20:52:34.603, 1582471354603
97, 924.97, 664.20, 722.16, 199.07, 0.000, 0.000, 0.000, 20:52:34.604, 1582471354604
98, 995.26, 740.32, 846.26, 265.62, 0.000, 0.000, 0.000, 20:52:34.604, 1582471354604
99, 988.08, 715.69, 841.65, 291.33, 0.000, 0.000, 0.000, 20:52:34.617, 1582471354617
100, 949.81, 684.07, 750.73, 235.87, 0.000, 0.000, 0.000, 20:52:34.617, 1582471354617
101, 959.44, 705.00, 740.49, 228.20, 0.000, 0.000, 0.000, 20:52:34.633, 1582471354633
102, 990.52, 724.82, 856.77, 264.09, 0.000, 0.000, 0.000, 20:52:34.633, 1582471354633
103, 1006.13, 731.78, 831.42, 300.75, 0.000, 0.000, 0.000, 20:52:34.634, 1582471354634
104, 982.74, 720.43, 772.84, 260.99, 0.000, 0.000, 0.000, 20:52:34.634, 1582471354634
105, 908.56, 662.50, 697.40, 200.05, 0.000, 0.000, 0.000, 20:52:34.648, 1582471354648
106, 975.36, 704.88, 837.90, 247.66, 0.000, 0.000, 0.000, 20:52:34.648, 1582471354648
107, 1034.16, 727.67, 908.27, 310.91, 0.000, 0.000, 0.000, 20:52:34.663, 1582471354663
108, 911.83, 665.63, 690.31, 211.79, 0.000, 0.000, 0.000, 20:52:34.663, 1582471354663
109, 933.07, 671.49, 715.85, 205.15, 0.000, 0.000, 0.000, 20:52:34.664, 1582471354664
110, 965.50, 713.07, 808.72, 240.21, 0.000, 0.000, 0.000, 20:52:34.664, 1582471354664
111, 990.85, 715.07, 837.33, 290.20, 0.000, 0.000, 0.000, 20:52:34.677, 1582471354677
112, 943.46, 683.11, 730.29, 229.77, 0.000, 0.000, 0.000, 20:52:34.677, 1582471354677
113, 930.13, 687.19, 700.10, 203.13, 0.000, 0.000, 0.000, 20:52:34.693, 1582471354693
114, 1007.49, 738.47, 854.15, 259.21, 0.000, 0.000, 0.000, 20:52:34.693, 1582471354693
115, 962.30, 698.86, 801.77, 269.48, 0.000, 0.000, 0.000, 20:52:34.694, 1582471354694
116, 969.37, 696.67, 757.62, 245.87, 0.000, 0.000, 0.000, 20:52:34.694, 1582471354694
117, 969.64, 690.91, 765.07, 227.85, 0.000, 0.000, 0.000, 20:52:34.708, 1582471354708
118, 999.30, 737.46, 843.60, 268.60, 0.000, 0.000, 0.000, 20:52:34.708, 1582471354708
119, 1019.04, 739.55, 866.28, 312.29, 0.000, 0.000, 0.000, 20:52:34.723, 1582471354723
120, 950.75, 688.78, 731.60, 240.98, 0.000, 0.000, 0.000, 20:52:34.723, 1582471354723
121, 943.69, 693.86, 719.59, 222.30, 0.000, 0.000, 0.000, 20:52:34.724, 1582471354724
122, 1023.72, 756.33, 849.28, 270.89, 0.000, 0.000, 0.000, 20:52:34.724, 1582471354724
123, 987.23, 709.92, 848.78, 297.94, 0.000, 0.000, 0.000, 20:52:34.737, 1582471354737
124, 944.73, 681.90, 730.92, 243.06, 0.000, 0.000, 0.000, 20:52:34.737, 1582471354737
125, 983.78, 699.37, 769.80, 238.98, 0.000, 0.000, 0.000, 20:52:34.753, 1582471354753
126, 992.32, 728.81, 841.69, 261.90, 0.000, 0.000, 0.000, 20:52:34.753, 1582471354753
127, 1030.34, 746.33, 867.04, 312.79, 0.000, 0.000, 0.000, 20:52:34.754, 1582471354754
128, 967.46, 698.45, 765.86, 257.89, 0.000, 0.000, 0.000, 20:52:34.754, 1582471354754
129, 975.85, 715.25, 744.57, 245.19, 0.000, 0.000, 0.000, 20:52:34.767, 1582471354767
130, 1011.75, 733.62, 856.34, 270.87, 0.000, 0.000, 0.000, 20:52:34.767, 1582471354767
131, 1014.26, 745.84, 852.81, 310.45, 0.000, 0.000, 0.000, 20:52:34.783, 1582471354783
132, 931.55, 665.43, 707.39, 234.21, 0.000, 0.000, 0.000, 20:52:34.783, 1582471354783
133, 898.91, 643.96, 687.53, 195.13, 0.000, 0.000, 0.000, 20:52:34.784, 1582471354784
134, 995.97, 724.05, 833.50, 255.88, 0.000, 0.000, 0.000, 20:52:34.784, 1582471354784
135, 1006.79, 729.40, 848.30, 302.68, 0.000, 0.000, 0.000, 20:52:34.798, 1582471354798
136, 948.81, 679.68, 734.60, 243.22, 0.000, 0.000, 0.000, 20:52:34.798, 1582471354798
137, 923.17, 656.70, 725.98, 209.34, 0.000, 0.000, 0.000, 20:52:34.813, 1582471354813
138, 1004.69, 721.83, 856.84, 270.04, 0.000, 0.000, 0.000, 20:52:34.813, 1582471354813
139, 1014.48, 723.95, 849.52, 312.66, 0.000, 0.000, 0.000, 20:52:34.814, 1582471354814
140, 994.52, 701.78, 763.16, 261.71, 0.000, 0.000, 0.000, 20:52:34.814, 1582471354814
141, 930.43, 669.95, 705.70, 211.61, 0.000, 0.000, 0.000, 20:52:34.827, 1582471354827
142, 1008.33, 731.23, 825.80, 256.97, 0.000, 0.000, 0.000, 20:52:34.827, 1582471354827
143, 936.89, 676.44, 772.46, 261.21, 0.000, 0.000, 0.000, 20:52:34.843, 1582471354843
144, 919.64, 655.03, 701.09, 216.56, 0.000, 0.000, 0.000, 20:52:34.843, 1582471354843
145, 939.06, 669.24, 716.93, 204.68, 0.000, 0.000, 0.000, 20:52:34.844, 1582471354844
146, 964.38, 699.57, 793.14, 230.23, 0.000, 0.000, 0.000, 20:52:34.844, 1582471354844
147, 997.91, 711.33, 827.80, 288.21, 0.000, 0.000, 0.000, 20:52:34.857, 1582471354857
148, 911.54, 651.77, 689.98, 220.16, 0.000, 0.000, 0.000, 20:52:34.857, 1582471354857
149, 930.72, 662.42, 699.13, 205.83, 0.000, 0.000, 0.000, 20:52:34.873, 1582471354873
150, 990.39, 726.77, 803.63, 253.38, 0.000, 0.000, 0.000, 20:52:34.873, 1582471354873
151, 975.85, 694.25, 829.86, 285.90, 0.000, 0.000, 0.000, 20:52:34.874, 1582471354874
152, 981.92, 686.93, 770.50, 262.58, 0.000, 0.000, 0.000, 20:52:34.874, 1582471354874
153, 966.12, 681.88, 762.04, 235.85, 0.000, 0.000, 0.000, 20:52:34.889, 1582471354889
154, 983.18, 720.40, 790.07, 248.70, 0.000, 0.000, 0.000, 20:52:34.889, 1582471354889
155, 992.48, 711.22, 817.82, 295.84, 0.000, 0.000, 0.000, 20:52:34.903, 1582471354903
156, 959.37, 669.72, 749.26, 249.73, 0.000, 0.000, 0.000, 20:52:34.903, 1582471354903
157, 975.28, 691.29, 741.25, 235.23, 0.000, 0.000, 0.000, 20:52:34.904, 1582471354904
158, 1009.69, 735.01, 828.06, 260.41, 0.000, 0.000, 0.000, 20:52:34.904, 1582471354904
159, 1008.88, 724.96, 814.15, 297.80, 0.000, 0.000, 0.000, 20:52:34.917, 1582471354917
160, 964.20, 684.68, 716.01, 248.66, 0.000, 0.000, 0.000, 20:52:34.917, 1582471354917
161, 921.87, 649.45, 717.98, 210.82, 0.000, 0.000, 0.000, 20:52:34.933, 1582471354933
162, 958.32, 693.17, 775.97, 239.20, 0.000, 0.000, 0.000, 20:52:34.933, 1582471354933
163, 1026.61, 733.30, 840.26, 313.22, 0.000, 0.000, 0.000, 20:52:34.934, 1582471354934
164, 971.55, 691.14, 747.51, 261.38, 0.000, 0.000, 0.000, 20:52:34.934, 1582471354934
165, 922.67, 664.75, 675.81, 217.50, 0.000, 0.000, 0.000, 20:52:34.948, 1582471354948
166, 1045.33, 752.04, 869.84, 285.03, 0.000, 0.000, 0.000, 20:52:34.948, 1582471354948
167, 980.85, 699.94, 810.49, 290.84, 0.000, 0.000, 0.000, 20:52:34.963, 1582471354963
168, 950.05, 671.74, 713.44, 246.31, 0.000, 0.000, 0.000, 20:52:34.963, 1582471354963
169, 973.91, 691.00, 740.72, 242.85, 0.000, 0.000, 0.000, 20:52:34.964, 1582471354964
170, 1014.09, 721.40, 853.31, 270.40, 0.000, 0.000, 0.000, 20:52:34.964, 1582471354964
171, 996.78, 717.07, 816.78, 299.65, 0.000, 0.000, 0.000, 20:52:34.978, 1582471354978
172, 987.00, 693.60, 763.33, 269.05, 0.000, 0.000, 0.000, 20:52:34.978, 1582471354978
173, 948.19, 675.38, 709.37, 226.57, 0.000, 0.000, 0.000, 20:52:34.993, 1582471354993
174, 1007.09, 723.75, 816.26, 270.22, 0.000, 0.000, 0.000, 20:52:34.993, 1582471354993
175, 979.94, 691.61, 804.29, 290.24, 0.000, 0.000, 0.000, 20:52:34.994, 1582471354994
176, 936.61, 646.31, 718.53, 234.34, 0.000, 0.000, 0.000, 20:52:34.994, 1582471354994
177, 917.69, 649.37, 669.95, 203.47, 0.000, 0.000, 0.000, 20:52:35.008, 1582471355008
178, 1030.99, 730.56, 842.90, 268.96, 0.000, 0.000, 0.000, 20:52:35.008, 1582471355008
179, 1032.07, 744.56, 835.30, 317.22, 0.000, 0.000, 0.000, 20:52:35.023, 1582471355023
180, 968.32, 679.15, 747.46, 260.77, 0.000, 0.000, 0.000, 20:52:35.023, 1582471355023
181, 894.57, 627.17, 660.20, 200.67, 0.000, 0.000, 0.000, 20:52:35.024, 1582471355024
182, 993.98, 724.29, 793.96, 256.43, 0.000, 0.000, 0.000, 20:52:35.024, 1582471355024
183, 1048.74, 746.78, 862.00, 321.10, 0.000, 0.000, 0.000, 20:52:35.054, 1582471355054
184, 941.04, 661.33, 700.76, 243.16, 0.000, 0.000, 0.000, 20:52:35.054, 1582471355054
185, 935.32, 659.44, 706.36, 226.39, 0.000, 0.000, 0.000, 20:52:35.054, 1582471355054
186, 982.29, 696.95, 808.50, 249.07, 0.000, 0.000, 0.000, 20:52:35.054, 1582471355054
187, 1067.05, 745.55, 886.22, 331.14, 0.000, 0.000, 0.000, 20:52:35.055, 1582471355055
188, 932.45, 657.07, 673.60, 236.20, 0.000, 0.000, 0.000, 20:52:35.055, 1582471355055
189, 945.84, 668.31, 691.99, 216.16, 0.000, 0.000, 0.000, 20:52:35.068, 1582471355068
190, 964.16, 671.88, 803.72, 239.62, 0.000, 0.000, 0.000, 20:52:35.068, 1582471355068
191, 1031.91, 732.08, 844.88, 320.89, 0.000, 0.000, 0.000, 20:52:35.084, 1582471355084
192, 932.58, 650.85, 693.24, 236.97, 0.000, 0.000, 0.000, 20:52:35.084, 1582471355084
193, 921.92, 644.66, 695.47, 214.92, 0.000, 0.000, 0.000, 20:52:35.098, 1582471355098
194, 976.07, 693.60, 781.77, 243.39, 0.000, 0.000, 0.000, 20:52:35.098, 1582471355098
195, 1010.53, 712.64, 825.45, 304.98, 0.000, 0.000, 0.000, 20:52:35.099, 1582471355099
196, 935.97, 662.39, 690.39, 243.24, 0.000, 0.000, 0.000, 20:52:35.099, 1582471355099
197, 952.56, 674.62, 698.56, 224.37, 0.000, 0.000, 0.000, 20:52:35.113, 1582471355113
198, 1007.04, 725.80, 787.81, 257.39, 0.000, 0.000, 0.000, 20:52:35.113, 1582471355113
199, 1033.25, 735.35, 837.23, 316.93, 0.000, 0.000, 0.000, 20:52:35.114, 1582471355114
200, 997.46, 709.37, 733.18, 273.95, 0.000, 0.000, 0.000, 20:52:35.114, 1582471355114
0, 923.75, 647.35, 687.01, 212.19, 0.000, 0.000, 0.000, 20:52:35.128, 1582471355128
1, 970.17, 666.76, 815.27, 239.95, 0.000, 0.000, 0.000, 20:52:35.129, 1582471355129
2, 1006.88, 711.11, 843.53, 310.24, 0.000, 0.000, 0.000, 20:52:35.129, 1582471355129
3, 906.78, 640.31, 656.00, 228.21, 0.000, 0.000, 0.000, 20:52:35.143, 1582471355143
4, 932.41, 666.70, 682.79, 218.99, 0.000, 0.000, 0.000, 20:52:35.143, 1582471355143
5, 1040.01, 747.42, 830.67, 282.72, 0.000, 0.000, 0.000, 20:52:35.158, 1582471355158
6, 1040.65, 749.90, 859.94, 330.09, 0.000, 0.000, 0.000, 20:52:35.158, 1582471355158
7, 950.86, 671.10, 697.90, 252.49, 0.000, 0.000, 0.000, 20:52:35.159, 1582471355159
8, 922.54, 651.72, 678.31, 219.31, 0.000, 0.000, 0.000, 20:52:35.159, 1582471355159
9, 961.18, 685.36, 747.20, 240.74, 0.000, 0.000, 0.000, 20:52:35.173, 1582471355173
10, 1023.73, 727.83, 843.67, 322.27, 0.000, 0.000, 0.000, 20:52:35.173, 1582471355173
11, 1010.29, 701.01, 762.45, 282.38, 0.000, 0.000, 0.000, 20:52:35.188, 1582471355188
12, 946.21, 677.92, 686.13, 239.05, 0.000, 0.000, 0.000, 20:52:35.188, 1582471355188
13, 948.43, 683.09, 744.19, 230.87, 0.000, 0.000, 0.000, 20:52:35.189, 1582471355189
14, 1028.17, 708.00, 870.80, 311.51, 0.000, 0.000, 0.000, 20:52:35.189, 1582471355189
15, 994.59, 706.90, 737.00, 264.81, 0.000, 0.000, 0.000, 20:52:35.202, 1582471355202
16, 915.15, 652.32, 648.52, 208.52, 0.000, 0.000, 0.000, 20:52:35.202, 1582471355202
17, 952.31, 683.21, 738.84, 220.35, 0.000, 0.000, 0.000, 20:52:35.218, 1582471355218
18, 1011.17, 723.66, 815.41, 303.05, 0.000, 0.000, 0.000, 20:52:35.218, 1582471355218
19, 915.68, 628.79, 685.21, 223.38, 0.000, 0.000, 0.000, 20:52:35.219, 1582471355219
20, 923.81, 641.07, 679.85, 209.56, 0.000, 0.000, 0.000, 20:52:35.219, 1582471355219
21, 1016.81, 722.29, 795.41, 251.25, 0.000, 0.000, 0.000, 20:52:35.232, 1582471355232
22, 1024.44, 715.26, 848.70, 306.02, 0.000, 0.000, 0.000, 20:52:35.232, 1582471355232
23, 901.61, 630.99, 654.34, 214.01, 0.000, 0.000, 0.000, 20:52:35.248, 1582471355248
24, 954.86, 646.47, 716.24, 217.65, 0.000, 0.000, 0.000, 20:52:35.248, 1582471355248
25, 957.43, 690.29, 733.49, 225.19, 0.000, 0.000, 0.000, 20:52:35.249, 1582471355249
26, 1015.25, 701.43, 847.22, 295.27, 0.000, 0.000, 0.000, 20:52:35.249, 1582471355249
27, 918.03, 641.85, 674.28, 223.64, 0.000, 0.000, 0.000, 20:52:35.262, 1582471355262
28, 928.05, 644.47, 678.88, 207.58, 0.000, 0.000, 0.000, 20:52:35.262, 1582471355262
29, 977.44, 689.75, 760.88, 234.18, 0.000, 0.000, 0.000, 20:52:35.278, 1582471355278
30, 1011.33, 712.77, 793.62, 289.47, 0.000, 0.000, 0.000, 20:52:35.278, 1582471355278
31, 936.85, 641.39, 699.56, 227.07, 0.000, 0.000, 0.000, 20:52:35.279, 1582471355279
32, 866.11, 597.48, 618.80, 171.30, 0.000, 0.000, 0.000, 20:52:35.279, 1582471355279
33, 942.49, 664.99, 730.01, 206.76, 0.000, 0.000, 0.000, 20:52:35.309, 1582471355309
34, 1033.58, 704.62, 874.83, 300.72, 0.000, 0.000, 0.000, 20:52:35.309, 1582471355309
35, 920.33, 633.35, 664.86, 218.73, 0.000, 0.000, 0.000, 20:52:35.309, 1582471355309
36, 920.25, 643.14, 662.03, 202.33, 0.000, 0.000, 0.000, 20:52:35.309, 1582471355309
37, 963.50, 683.19, 744.10, 224.30, 0.000, 0.000, 0.000, 20:52:35.310, 1582471355310
38, 1068.85, 735.33, 900.50, 322.55, 0.000, 0.000, 0.000, 20:52:35.310, 1582471355310
39, 922.66, 641.11, 673.54, 228.20, 0.000, 0.000, 0.000, 20:52:35.322, 1582471355322
40, 928.88, 640.31, 663.87, 197.02, 0.000, 0.000, 0.000, 20:52:35.322, 1582471355322
41, 951.17, 687.82, 719.26, 218.56, 0.000, 0.000, 0.000, 20:52:35.338, 1582471355338
42, 986.97, 687.99, 807.73, 278.54, 0.000, 0.000, 0.000, 20:52:35.338, 1582471355338
43, 939.71, 632.91, 727.11, 232.80, 0.000, 0.000, 0.000, 20:52:35.339, 1582471355339
44, 975.12, 670.17, 745.67, 229.35, 0.000, 0.000, 0.000, 20:52:35.339, 1582471355339
45, 994.53, 711.66, 732.75, 232.35, 0.000, 0.000, 0.000, 20:52:35.352, 1582471355352
46, 989.59, 711.82, 772.46, 285.64, 0.000, 0.000, 0.000, 20:52:35.352, 1582471355352
47, 904.12, 632.19, 645.85, 214.74, 0.000, 0.000, 0.000, 20:52:35.368, 1582471355368
48, 907.82, 627.39, 647.89, 192.54, 0.000, 0.000, 0.000, 20:52:35.368, 1582471355368
49, 973.32, 692.29, 741.50, 234.66, 0.000, 0.000, 0.000, 20:52:35.369, 1582471355369
50, 1010.04, 698.25, 827.77, 287.74, 0.000, 0.000, 0.000, 20:52:35.369, 1582471355369
51, 939.81, 650.52, 692.16, 226.22, 0.000, 0.000, 0.000, 20:52:35.382, 1582471355382
52, 960.35, 657.53, 707.94, 214.19, 0.000, 0.000, 0.000, 20:52:35.382, 1582471355382
53, 963.77, 679.17, 739.82, 215.38, 0.000, 0.000, 0.000, 20:52:35.398, 1582471355398
54, 1003.52, 706.95, 809.71, 282.85, 0.000, 0.000, 0.000, 20:52:35.398, 1582471355398
55, 940.52, 641.60, 703.77, 222.25, 0.000, 0.000, 0.000, 20:52:35.399, 1582471355399
56, 951.63, 648.81, 736.81, 214.60, 0.000, 0.000, 0.000, 20:52:35.399, 1582471355399
57, 952.57, 671.83, 736.16, 211.22, 0.000, 0.000, 0.000, 20:52:35.412, 1582471355412
58, 988.78, 683.06, 791.90, 272.58, 0.000, 0.000, 0.000, 20:52:35.412, 1582471355412
59, 900.03, 615.46, 639.36, 207.04, 0.000, 0.000, 0.000, 20:52:35.444, 1582471355444
60, 906.55, 630.69, 637.90, 184.53, 0.000, 0.000, 0.000, 20:52:35.444, 1582471355444
61, 939.43, 660.57, 713.89, 200.60, 0.000, 0.000, 0.000, 20:52:35.444, 1582471355444
62, 1023.66, 701.81, 842.52, 283.27, 0.000, 0.000, 0.000, 20:52:35.444, 1582471355444
63, 943.00, 660.17, 677.74, 224.24, 0.000, 0.000, 0.000, 20:52:35.445, 1582471355445
64, 923.45, 636.44, 653.69, 192.87, 0.000, 0.000, 0.000, 20:52:35.445, 1582471355445
65, 921.93, 639.41, 710.55, 192.24, 0.000, 0.000, 0.000, 20:52:35.458, 1582471355458
66, 1010.88, 703.07, 820.51, 287.98, 0.000, 0.000, 0.000, 20:52:35.458, 1582471355458
67, 917.27, 628.43, 677.14, 226.13, 0.000, 0.000, 0.000, 20:52:35.459, 1582471355459
68, 966.69, 662.66, 719.60, 221.70, 0.000, 0.000, 0.000, 20:52:35.459, 1582471355459
69, 961.31, 673.73, 734.71, 222.04, 0.000, 0.000, 0.000, 20:52:35.473, 1582471355473
70, 1027.23, 706.16, 837.05, 294.22, 0.000, 0.000, 0.000, 20:52:35.473, 1582471355473
71, 926.72, 626.74, 684.47, 220.37, 0.000, 0.000, 0.000, 20:52:35.488, 1582471355488
72, 899.86, 625.64, 634.64, 181.76, 0.000, 0.000, 0.000, 20:52:35.488, 1582471355488
73, 952.68, 667.03, 729.55, 206.35, 0.000, 0.000, 0.000, 20:52:35.489, 1582471355489
74, 1020.18, 720.49, 809.65, 290.95, 0.000, 0.000, 0.000, 20:52:35.489, 1582471355489
75, 931.52, 632.60, 683.79, 224.47, 0.000, 0.000, 0.000, 20:52:35.503, 1582471355503
76, 893.89, 623.02, 635.88, 185.47, 0.000, 0.000, 0.000, 20:52:35.503, 1582471355503
77, 955.93, 674.72, 723.26, 210.69, 0.000, 0.000, 0.000, 20:52:35.518, 1582471355518
78, 1018.25, 708.04, 837.76, 295.11, 0.000, 0.000, 0.000, 20:52:35.518, 1582471355518
79, 967.33, 669.89, 693.10, 251.54, 0.000, 0.000, 0.000, 20:52:35.519, 1582471355519
80, 936.82, 650.14, 657.38, 212.06, 0.000, 0.000, 0.000, 20:52:35.519, 1582471355519
81, 949.40, 666.07, 723.23, 216.27, 0.000, 0.000, 0.000, 20:52:35.533, 1582471355533
82, 1015.41, 702.13, 819.58, 290.42, 0.000, 0.000, 0.000, 20:52:35.533, 1582471355533
83, 942.46, 647.72, 698.42, 236.08, 0.000, 0.000, 0.000, 20:52:35.548, 1582471355548
84, 920.17, 638.32, 644.32, 195.47, 0.000, 0.000, 0.000, 20:52:35.548, 1582471355548
85, 917.22, 635.18, 696.27, 187.47, 0.000, 0.000, 0.000, 20:52:35.549, 1582471355549
86, 1001.66, 694.13, 820.94, 284.09, 0.000, 0.000, 0.000, 20:52:35.549, 1582471355549
87, 934.68, 637.91, 669.38, 229.29, 0.000, 0.000, 0.000, 20:52:35.563, 1582471355563
88, 900.69, 615.16, 642.73, 181.86, 0.000, 0.000, 0.000, 20:52:35.563, 1582471355563
89, 977.77, 672.50, 770.98, 222.06, 0.000, 0.000, 0.000, 20:52:35.578, 1582471355578
90, 991.90, 687.00, 805.43, 274.23, 0.000, 0.000, 0.000, 20:52:35.578, 1582471355578
91, 956.98, 650.25, 691.49, 239.96, 0.000, 0.000, 0.000, 20:52:35.579, 1582471355579
92, 936.27, 645.25, 677.81, 212.66, 0.000, 0.000, 0.000, 20:52:35.579, 1582471355579
93, 988.91, 691.79, 751.49, 229.13, 0.000, 0.000, 0.000, 20:52:35.592, 1582471355592
94, 971.11, 674.45, 789.20, 274.36, 0.000, 0.000, 0.000, 20:52:35.592, 1582471355592
95, 916.90, 626.86, 655.34, 228.59, 0.000, 0.000, 0.000, 20:52:35.608, 1582471355608
96, 976.72, 669.31, 716.01, 231.94, 0.000, 0.000, 0.000, 20:52:35.608, 1582471355608
97, 990.45, 700.36, 742.23, 234.07, 0.000, 0.000, 0.000, 20:52:35.609, 1582471355609
98, 1013.85, 720.96, 793.49, 294.38, 0.000, 0.000, 0.000, 20:52:35.609, 1582471355609
99, 925.87, 632.36, 694.68, 233.73, 0.000, 0.000, 0.000, 20:52:35.622, 1582471355622
100, 905.08, 623.18, 646.89, 196.72, 0.000, 0.000, 0.000, 20:52:35.622, 1582471355622
101, 959.04, 680.32, 714.35, 222.05, 0.000, 0.000, 0.000, 20:52:35.638, 1582471355638
102, 977.74, 675.53, 794.06, 270.61, 0.000, 0.000, 0.000, 20:52:35.638, 1582471355638
103, 931.09, 629.27, 697.73, 236.76, 0.000, 0.000, 0.000, 20:52:35.639, 1582471355639
104, 948.15, 645.19, 690.35, 218.21, 0.000, 0.000, 0.000, 20:52:35.639, 1582471355639
105, 969.18, 686.91, 729.35, 231.26, 0.000, 0.000, 0.000, 20:52:35.652, 1582471355652
106, 1014.22, 708.27, 836.27, 298.77, 0.000, 0.000, 0.000, 20:52:35.652, 1582471355652
107, 953.86, 655.67, 704.35, 255.91, 0.000, 0.000, 0.000, 20:52:35.668, 1582471355668
108, 954.17, 665.90, 682.03, 232.74, 0.000, 0.000, 0.000, 20:52:35.668, 1582471355668
109, 1002.29, 694.24, 781.92, 238.01, 0.000, 0.000, 0.000, 20:52:35.668, 1582471355668
110, 1043.61, 743.32, 823.33, 308.15, 0.000, 0.000, 0.000, 20:52:35.668, 1582471355668
111, 908.30, 611.14, 672.21, 222.35, 0.000, 0.000, 0.000, 20:52:35.683, 1582471355683
112, 909.93, 627.31, 652.42, 195.82, 0.000, 0.000, 0.000, 20:52:35.683, 1582471355683
113, 983.74, 700.89, 722.09, 237.93, 0.000, 0.000, 0.000, 20:52:35.698, 1582471355698
114, 1009.14, 717.59, 808.36, 303.35, 0.000, 0.000, 0.000, 20:52:35.698, 1582471355698
115, 966.50, 672.35, 713.30, 251.95, 0.000, 0.000, 0.000, 20:52:35.699, 1582471355699
116, 904.95, 637.60, 638.21, 198.00, 0.000, 0.000, 0.000, 20:52:35.699, 1582471355699
117, 913.93, 641.10, 683.32, 190.82, 0.000, 0.000, 0.000, 20:52:35.712, 1582471355712
118, 1014.97, 702.00, 835.58, 290.36, 0.000, 0.000, 0.000, 20:52:35.712, 1582471355712
119, 959.33, 648.05, 725.26, 249.85, 0.000, 0.000, 0.000, 20:52:35.728, 1582471355728
120, 948.43, 657.99, 691.15, 222.42, 0.000, 0.000, 0.000, 20:52:35.728, 1582471355728
121, 941.62, 656.94, 710.28, 210.63, 0.000, 0.000, 0.000, 20:52:35.729, 1582471355729
122, 1046.66, 732.10, 860.88, 312.57, 0.000, 0.000, 0.000, 20:52:35.729, 1582471355729
123, 929.11, 650.71, 680.32, 245.19, 0.000, 0.000, 0.000, 20:52:35.743, 1582471355743
124, 919.11, 621.92, 682.65, 206.83, 0.000, 0.000, 0.000, 20:52:35.743, 1582471355743
125, 942.37, 662.53, 701.00, 207.50, 0.000, 0.000, 0.000, 20:52:35.758, 1582471355758
126, 1001.01, 701.70, 813.45, 276.58, 0.000, 0.000, 0.000, 20:52:35.758, 1582471355758
127, 932.56, 635.27, 694.31, 233.38, 0.000, 0.000, 0.000, 20:52:35.759, 1582471355759
128, 925.63, 653.89, 634.91, 204.89, 0.000, 0.000, 0.000, 20:52:35.759, 1582471355759
129, 972.86, 678.03, 734.27, 226.77, 0.000, 0.000, 0.000, 20:52:35.773, 1582471355773
130, 989.23, 683.47, 815.91, 279.68, 0.000, 0.000, 0.000, 20:52:35.773, 1582471355773
131, 916.53, 622.04, 678.56, 229.90, 0.000, 0.000, 0.000, 20:52:35.788, 1582471355788
132, 923.13, 651.58, 655.63, 207.55, 0.000, 0.000, 0.000, 20:52:35.788, 1582471355788
133, 927.90, 653.67, 688.02, 201.28, 0.000, 0.000, 0.000, 20:52:35.789, 1582471355789
134, 1023.74, 716.90, 835.08, 301.67, 0.000, 0.000, 0.000, 20:52:35.789, 1582471355789
135, 965.91, 660.12, 738.54, 262.28, 0.000, 0.000, 0.000, 20:52:35.802, 1582471355802
136, 905.09, 630.22, 661.17, 205.20, 0.000, 0.000, 0.000, 20:52:35.802, 1582471355802
137, 943.08, 662.01, 703.85, 213.64, 0.000, 0.000, 0.000, 20:52:35.818, 1582471355818
138, 1012.77, 715.84, 827.18, 293.61, 0.000, 0.000, 0.000, 20:52:35.818, 1582471355818
139, 988.23, 682.36, 746.19, 272.41, 0.000, 0.000, 0.000, 20:52:35.819, 1582471355819
140, 928.89, 641.78, 675.45, 211.50, 0.000, 0.000, 0.000, 20:52:35.819, 1582471355819
141, 901.47, 639.96, 663.72, 187.81, 0.000, 0.000, 0.000, 20:52:35.832, 1582471355832
142, 1029.64, 718.29, 843.81, 291.92, 0.000, 0.000, 0.000, 20:52:35.832, 1582471355832
143, 965.51, 679.57, 702.21, 255.91, 0.000, 0.000, 0.000, 20:52:35.864, 1582471355864
144, 874.50, 603.41, 617.69, 181.14, 0.000, 0.000, 0.000, 20:52:35.864, 1582471355864
145, 960.75, 663.18, 725.47, 216.08, 0.000, 0.000, 0.000, 20:52:35.864, 1582471355864
146, 1014.42, 717.21, 810.33, 290.71, 0.000, 0.000, 0.000, 20:52:35.864, 1582471355864
147, 942.08, 641.56, 706.79, 236.90, 0.000, 0.000, 0.000, 20:52:35.865, 1582471355865
148, 904.72, 620.38, 668.20, 201.39, 0.000, 0.000, 0.000, 20:52:35.865, 1582471355865
149, 924.59, 644.50, 678.75, 191.96, 0.000, 0.000, 0.000, 20:52:35.878, 1582471355878
150, 1001.69, 703.53, 809.49, 276.58, 0.000, 0.000, 0.000, 20:52:35.878, 1582471355878
151, 923.78, 630.08, 682.64, 230.37, 0.000, 0.000, 0.000, 20:52:35.879, 1582471355879
152, 903.38, 615.29, 661.83, 186.55, 0.000, 0.000, 0.000, 20:52:35.879, 1582471355879
153, 936.21, 649.57, 697.45, 196.89, 0.000, 0.000, 0.000, 20:52:35.892, 1582471355892
154, 1005.21, 699.38, 818.96, 277.09, 0.000, 0.000, 0.000, 20:52:35.892, 1582471355892
155, 955.34, 647.03, 728.07, 244.59, 0.000, 0.000, 0.000, 20:52:35.908, 1582471355908
156, 976.32, 663.47, 722.48, 231.01, 0.000, 0.000, 0.000, 20:52:35.908, 1582471355908
157, 948.22, 661.62, 725.06, 216.78, 0.000, 0.000, 0.000, 20:52:35.909, 1582471355909
158, 1096.52, 765.90, 891.08, 321.46, 0.000, 0.000, 0.000, 20:52:35.909, 1582471355909
159, 948.91, 665.17, 687.18, 244.02, 0.000, 0.000, 0.000, 20:52:35.922, 1582471355922
160, 926.74, 648.41, 655.05, 205.67, 0.000, 0.000, 0.000, 20:52:35.922, 1582471355922
161, 955.33, 672.18, 713.69, 208.91, 0.000, 0.000, 0.000, 20:52:35.938, 1582471355938
162, 980.87, 693.90, 801.53, 280.59, 0.000, 0.000, 0.000, 20:52:35.938, 1582471355938
163, 924.42, 631.01, 680.89, 232.28, 0.000, 0.000, 0.000, 20:52:35.939, 1582471355939
164, 930.42, 643.11, 680.93, 214.97, 0.000, 0.000, 0.000, 20:52:35.939, 1582471355939
165, 971.38, 676.08, 738.10, 218.74, 0.000, 0.000, 0.000, 20:52:35.952, 1582471355952
166, 982.85, 685.05, 811.21, 271.99, 0.000, 0.000, 0.000, 20:52:35.952, 1582471355952
167, 923.21, 624.99, 701.42, 229.86, 0.000, 0.000, 0.000, 20:52:35.968, 1582471355968
168, 917.81, 634.02, 663.97, 196.93, 0.000, 0.000, 0.000, 20:52:35.968, 1582471355968
169, 932.31, 654.08, 683.41, 198.63, 0.000, 0.000, 0.000, 20:52:35.969, 1582471355969
170, 1035.17, 719.10, 870.67, 296.83, 0.000, 0.000, 0.000, 20:52:35.969, 1582471355969
171, 943.10, 644.22, 696.03, 239.60, 0.000, 0.000, 0.000, 20:52:35.982, 1582471355982
172, 937.50, 642.99, 660.81, 204.05, 0.000, 0.000, 0.000, 20:52:35.982, 1582471355982
173, 952.35, 672.14, 702.66, 206.99, 0.000, 0.000, 0.000, 20:52:35.998, 1582471355998
174, 1043.68, 724.21, 865.79, 298.82, 0.000, 0.000, 0.000, 20:52:35.998, 1582471355998
175, 952.79, 638.49, 744.64, 247.48, 0.000, 0.000, 0.000, 20:52:35.999, 1582471355999
176, 909.78, 634.68, 637.12, 190.47, 0.000, 0.000, 0.000, 20:52:35.999, 1582471355999
177, 965.87, 686.40, 706.59, 212.44, 0.000, 0.000, 0.000, 20:52:36.012, 1582471356012
178, 1011.94, 712.60, 839.76, 281.49, 0.000, 0.000, 0.000, 20:52:36.012, 1582471356012
179, 936.10, 648.15, 696.50, 232.15, 0.000, 0.000, 0.000, 20:52:36.028, 1582471356028
180, 868.70, 597.26, 617.75, 164.96, 0.000, 0.000, 0.000, 20:52:36.028, 1582471356028
181, 950.72, 659.47, 716.92, 198.07, 0.000, 0.000, 0.000, 20:52:36.029, 1582471356029
182, 1038.77, 726.87, 852.00, 283.55, 0.000, 0.000, 0.000, 20:52:36.029, 1582471356029
183, 928.38, 639.12, 683.14, 230.68, 0.000, 0.000, 0.000, 20:52:36.043, 1582471356043
184, 919.13, 624.91, 660.00, 191.20, 0.000, 0.000, 0.000, 20:52:36.043, 1582471356043
185, 907.95, 632.06, 689.42, 177.60, 0.000, 0.000, 0.000, 20:52:36.058, 1582471356058
186, 978.78, 691.68, 787.31, 260.50, 0.000, 0.000, 0.000, 20:52:36.058, 1582471356058
187, 951.11, 663.53, 702.07, 246.58, 0.000, 0.000, 0.000, 20:52:36.059, 1582471356059
188, 969.03, 675.46, 711.93, 223.45, 0.000, 0.000, 0.000, 20:52:36.059, 1582471356059
189, 914.10, 644.96, 671.98, 187.60, 0.000, 0.000, 0.000, 20:52:36.073, 1582471356073
190, 980.10, 678.19, 809.97, 264.23, 0.000, 0.000, 0.000, 20:52:36.073, 1582471356073
191, 944.22, 649.01, 714.86, 242.95, 0.000, 0.000, 0.000, 20:52:36.088, 1582471356088
192, 933.65, 648.29, 671.42, 201.30, 0.000, 0.000, 0.000, 20:52:36.088, 1582471356088
193, 958.56, 668.39, 730.27, 205.62, 0.000, 0.000, 0.000, 20:52:36.089, 1582471356089
194, 1058.92, 739.34, 905.39, 309.36, 0.000, 0.000, 0.000, 20:52:36.089, 1582471356089
195, 914.10, 644.96, 652.54, 227.41, 0.000, 0.000, 0.000, 20:52:36.103, 1582471356103
196, 929.61, 646.00, 666.52, 200.50, 0.000, 0.000, 0.000, 20:52:36.103, 1582471356103
197, 934.72, 658.93, 676.93, 194.20, 0.000, 0.000, 0.000, 20:52:36.118, 1582471356118
198, 962.57, 670.87, 785.60, 247.85, 0.000, 0.000, 0.000, 20:52:36.118, 1582471356118
199, 920.99, 636.00, 661.28, 222.49, 0.000, 0.000, 0.000, 20:52:36.119, 1582471356119
200, 953.05, 678.34, 655.60, 208.42, 0.000, 0.000, 0.000, 20:52:36.119, 1582471356119
0, 927.61, 630.57, 707.55, 177.94, 0.000, 0.000, 0.000, 20:52:36.133, 1582471356133
1, 974.27, 664.97, 821.45, 254.99, 0.000, 0.000, 0.000, 20:52:36.134, 1582471356134
2, 891.46, 614.57, 654.63, 206.71, 0.000, 0.000, 0.000, 20:52:36.134, 1582471356134
3, 878.24, 603.31, 626.54, 175.85, 0.000, 0.000, 0.000, 20:52:36.147, 1582471356147
4, 923.95, 646.25, 680.90, 181.39, 0.000, 0.000, 0.000, 20:52:36.147, 1582471356147
5, 1040.76, 728.02, 877.95, 291.72, 0.000, 0.000, 0.000, 20:52:36.163, 1582471356163
6, 1013.75, 693.53, 777.67, 270.33, 0.000, 0.000, 0.000, 20:52:36.163, 1582471356163
7, 904.19, 619.24, 645.34, 186.12, 0.000, 0.000, 0.000, 20:52:36.164, 1582471356164
8, 910.91, 642.94, 642.38, 180.11, 0.000, 0.000, 0.000, 20:52:36.164, 1582471356164
9, 971.36, 688.66, 794.63, 253.46, 0.000, 0.000, 0.000, 20:52:36.177, 1582471356177
10, 935.19, 631.20, 705.61, 232.93, 0.000, 0.000, 0.000, 20:52:36.177, 1582471356177
11, 913.26, 642.42, 646.92, 195.35, 0.000, 0.000, 0.000, 20:52:36.209, 1582471356209
12, 930.31, 647.01, 679.84, 183.98, 0.000, 0.000, 0.000, 20:52:36.209, 1582471356209
13, 979.63, 680.92, 792.94, 245.48, 0.000, 0.000, 0.000, 20:52:36.209, 1582471356209
14, 957.23, 656.50, 723.04, 239.72, 0.000, 0.000, 0.000, 20:52:36.209, 1582471356209
15, 900.84, 617.35, 641.00, 185.53, 0.000, 0.000, 0.000, 20:52:36.210, 1582471356210
16, 930.82, 654.08, 665.18, 185.55, 0.000, 0.000, 0.000, 20:52:36.210, 1582471356210
17, 1030.65, 713.49, 847.23, 274.49, 0.000, 0.000, 0.000, 20:52:36.225, 1582471356225
18, 918.26, 623.81, 694.79, 226.58, 0.000, 0.000, 0.000, 20:52:36.225, 1582471356225
19, 916.95, 620.94, 675.06, 189.52, 0.000, 0.000, 0.000, 20:52:36.226, 1582471356226
20, 919.48, 649.51, 651.74, 175.89, 0.000, 0.000, 0.000, 20:52:36.226, 1582471356226
21, 1039.97, 727.22, 865.28, 290.78, 0.000, 0.000, 0.000, 20:52:36.238, 1582471356238
22, 909.04, 621.86, 685.72, 223.42, 0.000, 0.000, 0.000, 20:52:36.238, 1582471356238
23, 896.74, 613.73, 637.89, 179.28, 0.000, 0.000, 0.000, 20:52:36.253, 1582471356253
24, 916.65, 632.16, 675.32, 182.05, 0.000, 0.000, 0.000, 20:52:36.253, 1582471356253
25, 1004.22, 708.81, 826.79, 269.72, 0.000, 0.000, 0.000, 20:52:36.254, 1582471356254
26, 952.86, 643.17, 724.93, 237.44, 0.000, 0.000, 0.000, 20:52:36.254, 1582471356254
27, 885.21, 614.05, 622.71, 175.58, 0.000, 0.000, 0.000, 20:52:36.268, 1582471356268
28, 898.96, 627.44, 659.70, 168.82, 0.000, 0.000, 0.000, 20:52:36.268, 1582471356268
29, 1056.04, 733.06, 879.84, 294.46, 0.000, 0.000, 0.000, 20:52:36.283, 1582471356283
30, 948.90, 649.17, 713.41, 242.64, 0.000, 0.000, 0.000, 20:52:36.283, 1582471356283
31, 907.91, 625.39, 648.47, 192.97, 0.000, 0.000, 0.000, 20:52:36.284, 1582471356284
32, 934.56, 661.50, 669.30, 186.60, 0.000, 0.000, 0.000, 20:52:36.284, 1582471356284
33, 1002.27, 711.90, 824.93, 271.04, 0.000, 0.000, 0.000, 20:52:36.298, 1582471356298
34, 959.20, 646.86, 728.34, 240.58, 0.000, 0.000, 0.000, 20:52:36.298, 1582471356298
35, 925.93, 627.38, 699.73, 210.00, 0.000, 0.000, 0.000, 20:52:36.313, 1582471356313
36, 952.01, 669.43, 681.94, 200.61, 0.000, 0.000, 0.000, 20:52:36.313, 1582471356313
37, 998.61, 709.37, 798.52, 268.44, 0.000, 0.000, 0.000, 20:52:36.314, 1582471356314
38, 945.62, 652.41, 723.84, 249.72, 0.000, 0.000, 0.000, 20:52:36.314, 1582471356314
39, 977.73, 663.72, 735.36, 232.72, 0.000, 0.000, 0.000, 20:52:36.328, 1582471356328
40, 927.11, 643.19, 687.23, 193.73, 0.000, 0.000, 0.000, 20:52:36.328, 1582471356328
41, 999.12, 696.49, 842.45, 275.82, 0.000, 0.000, 0.000, 20:52:36.343, 1582471356343
42, 972.60, 688.88, 702.97, 263.47, 0.000, 0.000, 0.000, 20:52:36.343, 1582471356343
43, 902.22, 625.67, 655.35, 195.37, 0.000, 0.000, 0.000, 20:52:36.344, 1582471356344
44, 875.38, 607.95, 643.19, 159.85, 0.000, 0.000, 0.000, 20:52:36.344, 1582471356344
45, 1015.13, 695.84, 853.18, 264.14, 0.000, 0.000, 0.000, 20:52:36.358, 1582471356358
46, 916.31, 637.17, 671.82, 230.33, 0.000, 0.000, 0.000, 20:52:36.358, 1582471356358
47, 930.41, 652.60, 663.83, 197.05, 0.000, 0.000, 0.000, 20:52:36.373, 1582471356373
48, 948.23, 666.19, 687.96, 197.05, 0.000, 0.000, 0.000, 20:52:36.373, 1582471356373
49, 1019.72, 718.69, 839.78, 279.83, 0.000, 0.000, 0.000, 20:52:36.374, 1582471356374
50, 959.37, 656.93, 723.70, 246.10, 0.000, 0.000, 0.000, 20:52:36.374, 1582471356374
51, 913.72, 632.68, 664.78, 194.68, 0.000, 0.000, 0.000, 20:52:36.388, 1582471356388
52, 918.04, 633.34, 682.47, 175.96, 0.000, 0.000, 0.000, 20:52:36.388, 1582471356388
53, 1002.09, 692.95, 824.10, 261.79, 0.000, 0.000, 0.000, 20:52:36.419, 1582471356419
54, 1010.90, 695.68, 766.65, 265.73, 0.000, 0.000, 0.000, 20:52:36.419, 1582471356419
55, 945.66, 647.49, 671.10, 198.32, 0.000, 0.000, 0.000, 20:52:36.419, 1582471356419
56, 884.55, 613.17, 649.93, 166.09, 0.000, 0.000, 0.000, 20:52:36.419, 1582471356419
57, 951.37, 653.72, 794.04, 234.25, 0.000, 0.000, 0.000, 20:52:36.420, 1582471356420
58, 918.42, 614.82, 670.93, 207.58, 0.000, 0.000, 0.000, 20:52:36.420, 1582471356420
59, 858.01, 571.84, 599.88, 138.57, 0.000, 0.000, 0.000, 20:52:36.433, 1582471356433
60, 848.51, 569.15, 602.96, 113.71, 0.000, 0.000, 0.000, 20:52:36.433, 1582471356433
61, 905.87, 616.80, 730.92, 179.95, 0.000, 0.000, 0.000, 20:52:36.434, 1582471356434
62, 834.78, 542.95, 613.13, 131.75, 0.000, 0.000, 0.000, 20:52:36.434, 1582471356434
63, 769.01, 486.95, 523.87, 50.64, 0.000, 0.000, 0.000, 20:52:36.447, 1582471356447
64, 764.90, 501.50, 499.81, 28.05, 0.000, 0.000, 0.000, 20:52:36.447, 1582471356447
65, 869.13, 565.58, 686.48, 117.78, 0.000, 0.000, 0.000, 20:52:36.463, 1582471356463
66, 740.23, 459.34, 516.93, 48.97, 0.000, 0.000, 0.000, 20:52:36.463, 1582471356463
67, 743.57, 448.35, 510.11, 19.23, 0.000, 0.000, 0.000, 20:52:36.464, 1582471356464
68, 723.68, 448.06, 486.04, -6.05, 0.000, 0.000, 0.000, 20:52:36.464, 1582471356464
69, 802.82, 513.94, 635.62, 76.99, 0.000, 0.000, 0.000, 20:52:36.477, 1582471356477
70, 766.42, 470.16, 544.96, 61.51, 0.000, 0.000, 0.000, 20:52:36.477, 1582471356477
71, 717.10, 438.16, 477.01, 16.76, 0.000, 0.000, 0.000, 20:52:36.493, 1582471356493
72, 747.51, 465.44, 519.34, 20.40, 0.000, 0.000, 0.000, 20:52:36.493, 1582471356493
73, 858.68, 573.40, 659.30, 122.77, 0.000, 0.000, 0.000, 20:52:36.494, 1582471356494
74, 795.73, 503.42, 573.09, 102.66, 0.000, 0.000, 0.000, 20:52:36.494, 1582471356494
75, 786.83, 507.54, 547.69, 68.41, 0.000, 0.000, 0.000, 20:52:36.507, 1582471356507
76, 775.89, 505.66, 545.25, 53.81, 0.000, 0.000, 0.000, 20:52:36.507, 1582471356507
77, 894.48, 605.19, 733.61, 166.78, 0.000, 0.000, 0.000, 20:52:36.523, 1582471356523
78, 838.33, 550.02, 625.29, 151.36, 0.000, 0.000, 0.000, 20:52:36.523, 1582471356523
79, 851.99, 567.04, 603.20, 125.56, 0.000, 0.000, 0.000, 20:52:36.524, 1582471356524
80, 869.26, 577.57, 641.48, 122.52, 0.000, 0.000, 0.000, 20:52:36.524, 1582471356524
81, 930.26, 658.18, 730.22, 197.98, 0.000, 0.000, 0.000, 20:52:36.537, 1582471356537
82, 886.19, 598.64, 674.01, 189.22, 0.000, 0.000, 0.000, 20:52:36.537, 1582471356537
83, 872.48, 581.59, 645.36, 150.21, 0.000, 0.000, 0.000, 20:52:36.553, 1582471356553
84, 873.68, 607.28, 632.92, 146.00, 0.000, 0.000, 0.000, 20:52:36.553, 1582471356553
85, 973.08, 685.65, 796.18, 235.85, 0.000, 0.000, 0.000, 20:52:36.554, 1582471356554
86, 931.47, 639.36, 717.72, 229.57, 0.000, 0.000, 0.000, 20:52:36.554, 1582471356554
87, 916.77, 651.45, 657.04, 195.19, 0.000, 0.000, 0.000, 20:52:36.568, 1582471356568
88, 912.01, 630.01, 685.54, 173.64, 0.000, 0.000, 0.000, 20:52:36.568, 1582471356568
89, 1001.41, 710.29, 819.97, 263.88, 0.000, 0.000, 0.000, 20:52:36.583, 1582471356583
90, 910.71, 621.10, 720.20, 221.10, 0.000, 0.000, 0.000, 20:52:36.583, 1582471356583
91, 937.85, 650.02, 682.94, 204.18, 0.000, 0.000, 0.000, 20:52:36.584, 1582471356584
92, 965.46, 689.82, 709.68, 205.23, 0.000, 0.000, 0.000, 20:52:36.584, 1582471356584
93, 1017.88, 724.40, 838.08, 265.77, 0.000, 0.000, 0.000, 20:52:36.597, 1582471356597
94, 942.52, 659.45, 718.34, 242.90, 0.000, 0.000, 0.000, 20:52:36.597, 1582471356597
95, 932.47, 652.02, 688.84, 217.97, 0.000, 0.000, 0.000, 20:52:36.613, 1582471356613
96, 924.91, 654.70, 683.93, 198.23, 0.000, 0.000, 0.000, 20:52:36.613, 1582471356613
97, 990.55, 699.49, 829.40, 272.22, 0.000, 0.000, 0.000, 20:52:36.614, 1582471356614
98, 985.92, 678.97, 772.51, 276.13, 0.000, 0.000, 0.000, 20:52:36.614, 1582471356614
99, 966.85, 670.02, 733.40, 235.27, 0.000, 0.000, 0.000, 20:52:36.627, 1582471356627
100, 946.86, 682.93, 698.59, 213.00, 0.000, 0.000, 0.000, 20:52:36.627, 1582471356627
101, 1002.24, 717.93, 837.90, 273.70, 0.000, 0.000, 0.000, 20:52:36.643, 1582471356643
102, 973.19, 673.17, 762.30, 267.48, 0.000, 0.000, 0.000, 20:52:36.643, 1582471356643
103, 940.71, 662.17, 696.04, 222.51, 0.000, 0.000, 0.000, 20:52:36.644, 1582471356644
104, 982.22, 705.93, 720.79, 228.30, 0.000, 0.000, 0.000, 20:52:36.644, 1582471356644
105, 1056.96, 762.75, 885.41, 303.55, 0.000, 0.000, 0.000, 20:52:36.657, 1582471356657
106, 990.29, 702.56, 761.78, 284.56, 0.000, 0.000, 0.000, 20:52:36.657, 1582471356657
107, 908.58, 620.51, 678.77, 200.94, 0.000, 0.000, 0.000, 20:52:36.673, 1582471356673
108, 948.07, 653.48, 726.68, 204.00, 0.000, 0.000, 0.000, 20:52:36.673, 1582471356673
109, 1016.79, 727.91, 850.59, 279.66, 0.000, 0.000, 0.000, 20:52:36.674, 1582471356674
110, 996.59, 698.68, 764.97, 280.05, 0.000, 0.000, 0.000, 20:52:36.674, 1582471356674
111, 946.96, 661.78, 715.73, 229.82, 0.000, 0.000, 0.000, 20:52:36.687, 1582471356687
112, 952.46, 677.86, 695.05, 213.26, 0.000, 0.000, 0.000, 20:52:36.687, 1582471356687
113, 1043.01, 740.96, 870.22, 295.86, 0.000, 0.000, 0.000, 20:52:36.703, 1582471356703
114, 977.28, 671.48, 778.97, 282.64, 0.000, 0.000, 0.000, 20:52:36.703, 1582471356703
115, 973.57, 680.55, 738.70, 248.99, 0.000, 0.000, 0.000, 20:52:36.704, 1582471356704
116, 973.66, 703.22, 714.03, 238.49, 0.000, 0.000, 0.000, 20:52:36.704, 1582471356704
117, 1062.96, 760.48, 879.54, 317.20, 0.000, 0.000, 0.000, 20:52:36.717, 1582471356717
118, 998.97, 704.05, 800.02, 301.15, 0.000, 0.000, 0.000, 20:52:36.717, 1582471356717
119, 965.42, 678.80, 730.05, 250.76, 0.000, 0.000, 0.000, 20:52:36.733, 1582471356733
120, 971.08, 685.14, 729.52, 234.29, 0.000, 0.000, 0.000, 20:52:36.733, 1582471356733
121, 1052.17, 763.58, 871.10, 308.11, 0.000, 0.000, 0.000, 20:52:36.734, 1582471356734
122, 1004.43, 713.22, 769.28, 291.09, 0.000, 0.000, 0.000, 20:52:36.734, 1582471356734
123, 945.98, 659.48, 709.95, 226.66, 0.000, 0.000, 0.000, 20:52:36.764, 1582471356764
124, 976.87, 688.29, 722.16, 220.09, 0.000, 0.000, 0.000, 20:52:36.764, 1582471356764
125, 1023.86, 735.93, 866.32, 291.57, 0.000, 0.000, 0.000, 20:52:36.764, 1582471356764
126, 983.89, 692.82, 757.09, 280.06, 0.000, 0.000, 0.000, 20:52:36.764, 1582471356764
127, 941.00, 659.95, 699.05, 224.66, 0.000, 0.000, 0.000, 20:52:36.765, 1582471356765
128, 976.30, 674.92, 748.68, 231.14, 0.000, 0.000, 0.000, 20:52:36.765, 1582471356765
129, 1020.14, 727.53, 829.40, 281.67, 0.000, 0.000, 0.000, 20:52:36.777, 1582471356777
130, 974.89, 682.79, 767.09, 275.28, 0.000, 0.000, 0.000, 20:52:36.777, 1582471356777
131, 951.54, 668.01, 700.87, 229.68, 0.000, 0.000, 0.000, 20:52:36.793, 1582471356793
132, 948.16, 668.45, 696.01, 208.75, 0.000, 0.000, 0.000, 20:52:36.793, 1582471356793
133, 1014.95, 711.29, 868.43, 277.31, 0.000, 0.000, 0.000, 20:52:36.794, 1582471356794
134, 985.10, 696.57, 758.92, 279.89, 0.000, 0.000, 0.000, 20:52:36.794, 1582471356794
135, 894.16, 628.05, 651.02, 195.70, 0.000, 0.000, 0.000, 20:52:36.807, 1582471356807
136, 919.93, 646.53, 661.36, 189.21, 0.000, 0.000, 0.000, 20:52:36.807, 1582471356807
137, 1026.53, 733.46, 849.32, 277.57, 0.000, 0.000, 0.000, 20:52:36.823, 1582471356823
138, 1027.82, 722.51, 812.98, 297.43, 0.000, 0.000, 0.000, 20:52:36.823, 1582471356823
139, 922.67, 650.45, 673.12, 212.99, 0.000, 0.000, 0.000, 20:52:36.824, 1582471356824
140, 956.98, 663.77, 722.12, 217.22, 0.000, 0.000, 0.000, 20:52:36.824, 1582471356824
141, 998.66, 708.04, 808.26, 266.08, 0.000, 0.000, 0.000, 20:52:36.837, 1582471356837
142, 948.05, 663.01, 745.12, 261.77, 0.000, 0.000, 0.000, 20:52:36.837, 1582471356837
143, 945.27, 644.20, 704.81, 217.73, 0.000, 0.000, 0.000, 20:52:36.853, 1582471356853
144, 941.45, 657.88, 708.82, 207.14, 0.000, 0.000, 0.000, 20:52:36.853, 1582471356853
145, 1036.18, 740.33, 854.63, 283.74, 0.000, 0.000, 0.000, 20:52:36.854, 1582471356854
146, 985.92, 685.05, 783.23, 283.31, 0.000, 0.000, 0.000, 20:52:36.854, 1582471356854
147, 958.48, 668.69, 715.47, 239.33, 0.000, 0.000, 0.000, 20:52:36.867, 1582471356867
148, 918.46, 630.02, 669.86, 188.97, 0.000, 0.000, 0.000, 20:52:36.867, 1582471356867
149, 1003.27, 715.87, 830.43, 265.29, 0.000, 0.000, 0.000, 20:52:36.883, 1582471356883
150, 966.97, 679.45, 749.34, 271.90, 0.000, 0.000, 0.000, 20:52:36.883, 1582471356883
151, 969.10, 677.43, 728.86, 238.02, 0.000, 0.000, 0.000, 20:52:36.884, 1582471356884
152, 973.43, 684.03, 716.82, 218.59, 0.000, 0.000, 0.000, 20:52:36.884, 1582471356884
153, 1032.08, 728.35, 845.23, 282.09, 0.000, 0.000, 0.000, 20:52:36.898, 1582471356898
154, 924.19, 640.84, 754.45, 250.59, 0.000, 0.000, 0.000, 20:52:36.898, 1582471356898
155, 957.95, 672.22, 703.53, 226.87, 0.000, 0.000, 0.000, 20:52:36.913, 1582471356913
156, 948.15, 663.20, 685.12, 202.76, 0.000, 0.000, 0.000, 20:52:36.913, 1582471356913
157, 963.30, 678.15, 795.45, 243.28, 0.000, 0.000, 0.000, 20:52:36.914, 1582471356914
158, 995.54, 686.10, 799.16, 284.59, 0.000, 0.000, 0.000, 20:52:36.914, 1582471356914
159, 988.26, 684.87, 748.08, 251.02, 0.000, 0.000, 0.000, 20:52:36.928, 1582471356928
160, 904.97, 632.84, 651.18, 191.87, 0.000, 0.000, 0.000, 20:52:36.928, 1582471356928
161, 1004.68, 706.58, 837.10, 266.52, 0.000, 0.000, 0.000, 20:52:36.943, 1582471356943
162, 973.72, 675.17, 771.42, 270.96, 0.000, 0.000, 0.000, 20:52:36.943, 1582471356943
163, 943.07, 656.31, 699.24, 225.26, 0.000, 0.000, 0.000, 20:52:36.944, 1582471356944
164, 958.41, 671.17, 708.26, 214.18, 0.000, 0.000, 0.000, 20:52:36.944, 1582471356944
165, 1062.15, 755.80, 885.13, 298.89, 0.000, 0.000, 0.000, 20:52:36.974, 1582471356974
166, 1001.44, 687.88, 803.30, 285.35, 0.000, 0.000, 0.000, 20:52:36.974, 1582471356974
167, 901.45, 615.84, 668.43, 200.04, 0.000, 0.000, 0.000, 20:52:36.974, 1582471356974
168, 936.18, 651.03, 677.15, 198.74, 0.000, 0.000, 0.000, 20:52:36.974, 1582471356974
169, 1056.40, 747.17, 864.58, 282.37, 0.000, 0.000, 0.000, 20:52:36.975, 1582471356975
170, 956.29, 668.25, 753.30, 261.55, 0.000, 0.000, 0.000, 20:52:36.975, 1582471356975
171, 966.68, 669.61, 728.25, 235.55, 0.000, 0.000, 0.000, 20:52:36.987, 1582471356987
172, 921.47, 636.73, 672.16, 190.22, 0.000, 0.000, 0.000, 20:52:36.987, 1582471356987
173, 1013.06, 701.85, 838.55, 260.00, 0.000, 0.000, 0.000, 20:52:37.003, 1582471357003
174, 965.95, 668.96, 763.89, 266.22, 0.000, 0.000, 0.000, 20:52:37.003, 1582471357003
175, 901.73, 608.80, 682.58, 198.60, 0.000, 0.000, 0.000, 20:52:37.004, 1582471357004
176, 905.96, 629.89, 647.13, 174.62, 0.000, 0.000, 0.000, 20:52:37.004, 1582471357004
177, 1005.71, 702.64, 843.14, 270.08, 0.000, 0.000, 0.000, 20:52:37.017, 1582471357017
178, 1001.66, 687.63, 809.76, 291.53, 0.000, 0.000, 0.000, 20:52:37.017, 1582471357017
179, 936.36, 640.34, 695.85, 218.49, 0.000, 0.000, 0.000, 20:52:37.033, 1582471357033
180, 932.55, 652.33, 675.51, 198.20, 0.000, 0.000, 0.000, 20:52:37.033, 1582471357033
181, 1045.15, 728.88, 872.68, 281.02, 0.000, 0.000, 0.000, 20:52:37.034, 1582471357034
182, 939.81, 654.74, 744.14, 259.92, 0.000, 0.000, 0.000, 20:52:37.034, 1582471357034
183, 975.34, 671.93, 750.35, 247.60, 0.000, 0.000, 0.000, 20:52:37.047, 1582471357047
184, 892.69, 624.78, 650.59, 182.15, 0.000, 0.000, 0.000, 20:52:37.047, 1582471357047
185, 1002.72, 709.59, 812.55, 257.27, 0.000, 0.000, 0.000, 20:52:37.063, 1582471357063
186, 952.02, 668.89, 753.17, 254.75, 0.000, 0.000, 0.000, 20:52:37.063, 1582471357063
187, 951.77, 662.73, 701.11, 230.62, 0.000, 0.000, 0.000, 20:52:37.064, 1582471357064
188, 901.58, 629.05, 662.59, 183.59, 0.000, 0.000, 0.000, 20:52:37.064, 1582471357064
189, 992.45, 702.95, 826.44, 256.29, 0.000, 0.000, 0.000, 20:52:37.077, 1582471357077
190, 977.55, 665.63, 791.27, 270.17, 0.000, 0.000, 0.000, 20:52:37.077, 1582471357077
191, 928.74, 637.02, 686.19, 211.25, 0.000, 0.000, 0.000, 20:52:37.093, 1582471357093
192, 921.92, 644.41, 676.50, 197.60, 0.000, 0.000, 0.000, 20:52:37.093, 1582471357093
193, 1009.68, 712.65, 846.07, 263.96, 0.000, 0.000, 0.000, 20:52:37.094, 1582471357094
194, 933.82, 650.51, 733.57, 251.30, 0.000, 0.000, 0.000, 20:52:37.094, 1582471357094
195, 969.16, 653.58, 743.83, 226.30, 0.000, 0.000, 0.000, 20:52:37.107, 1582471357107
196, 929.15, 638.97, 703.18, 195.93, 0.000, 0.000, 0.000, 20:52:37.107, 1582471357107
197, 977.28, 709.67, 777.55, 244.93, 0.000, 0.000, 0.000, 20:52:37.123, 1582471357123
198, 977.11, 672.73, 804.94, 275.22, 0.000, 0.000, 0.000, 20:52:37.123, 1582471357123
199, 924.08, 639.00, 694.13, 214.04, 0.000, 0.000, 0.000, 20:52:37.124, 1582471357124
200, 922.59, 632.95, 695.31, 191.70, 0.000, 0.000, 0.000, 20:52:37.124, 1582471357124
0, 976.49, 694.01, 783.45, 240.68, 0.000, 0.000, 0.000, 20:52:37.138, 1582471357138
1, 947.90, 655.62, 737.96, 251.32, 0.000, 0.000, 0.000, 20:52:37.153, 1582471357153
2, 912.15, 620.17, 679.98, 201.36, 0.000, 0.000, 0.000, 20:52:37.153, 1582471357153
3, 923.45, 643.19, 675.30, 192.83, 0.000, 0.000, 0.000, 20:52:37.154, 1582471357154
4, 997.43, 701.87, 825.29, 247.51, 0.000, 0.000, 0.000, 20:52:37.154, 1582471357154
5, 949.11, 669.56, 751.73, 256.81, 0.000, 0.000, 0.000, 20:52:37.168, 1582471357168
6, 901.55, 617.77, 670.34, 191.78, 0.000, 0.000, 0.000, 20:52:37.168, 1582471357168
7, 907.31, 627.02, 664.64, 180.34, 0.000, 0.000, 0.000, 20:52:37.169, 1582471357169
8, 1029.80, 725.44, 835.81, 265.05, 0.000, 0.000, 0.000, 20:52:37.169, 1582471357169
9, 997.12, 686.09, 813.18, 283.01, 0.000, 0.000, 0.000, 20:52:37.182, 1582471357182
10, 915.15, 610.11, 703.31, 205.27, 0.000, 0.000, 0.000, 20:52:37.182, 1582471357182
11, 971.93, 668.06, 717.95, 216.81, 0.000, 0.000, 0.000, 20:52:37.198, 1582471357198
12, 971.52, 682.80, 788.18, 236.31, 0.000, 0.000, 0.000, 20:52:37.198, 1582471357198
13, 943.24, 653.77, 730.26, 255.46, 0.000, 0.000, 0.000, 20:52:37.199, 1582471357199
14, 934.16, 641.14, 705.35, 214.87, 0.000, 0.000, 0.000, 20:52:37.199, 1582471357199
15, 941.61, 648.82, 717.51, 204.94, 0.000, 0.000, 0.000, 20:52:37.212, 1582471357212
16, 977.00, 694.85, 787.65, 238.00, 0.000, 0.000, 0.000, 20:52:37.212, 1582471357212
17, 978.26, 677.60, 774.59, 270.81, 0.000, 0.000, 0.000, 20:52:37.228, 1582471357228
18, 938.24, 656.00, 694.14, 227.74, 0.000, 0.000, 0.000, 20:52:37.228, 1582471357228
19, 930.98, 648.10, 691.99, 201.78, 0.000, 0.000, 0.000, 20:52:37.229, 1582471357229
20, 969.78, 682.91, 782.52, 240.06, 0.000, 0.000, 0.000, 20:52:37.229, 1582471357229
21, 980.41, 672.67, 790.55, 271.25, 0.000, 0.000, 0.000, 20:52:37.242, 1582471357242
22, 934.03, 640.07, 694.96, 219.54, 0.000, 0.000, 0.000, 20:52:37.242, 1582471357242
23, 909.59, 633.43, 657.85, 185.55, 0.000, 0.000, 0.000, 20:52:37.258, 1582471357258
24, 1041.27, 730.34, 849.10, 271.56, 0.000, 0.000, 0.000, 20:52:37.258, 1582471357258
25, 1040.12, 683.29, 897.78, 303.95, 0.000, 0.000, 0.000, 20:52:37.273, 1582471357273
26, 924.05, 642.39, 658.70, 210.50, 0.000, 0.000, 0.000, 20:52:37.273, 1582471357273
27, 876.14, 621.23, 626.64, 177.92, 0.000, 0.000, 0.000, 20:52:37.274, 1582471357274
28, 995.97, 704.78, 799.70, 248.41, 0.000, 0.000, 0.000, 20:52:37.274, 1582471357274
29, 992.81, 697.83, 804.32, 289.67, 0.000, 0.000, 0.000, 20:52:37.288, 1582471357288
30, 945.81, 646.89, 723.87, 230.96, 0.000, 0.000, 0.000, 20:52:37.288, 1582471357288
31, 906.80, 628.88, 654.50, 193.71, 0.000, 0.000, 0.000, 20:52:37.289, 1582471357289
32, 999.55, 701.06, 813.35, 252.86, 0.000, 0.000, 0.000, 20:52:37.289, 1582471357289
33, 1029.22, 733.59, 814.06, 308.73, 0.000, 0.000, 0.000, 20:52:37.319, 1582471357319
34, 961.76, 643.11, 731.07, 238.82, 0.000, 0.000, 0.000, 20:52:37.319, 1582471357319
35, 921.92, 629.25, 676.29, 197.48, 0.000, 0.000, 0.000, 20:52:37.320, 1582471357320
36, 966.69, 682.33, 780.96, 246.74, 0.000, 0.000, 0.000, 20:52:37.320, 1582471357320
37, 1035.25, 711.12, 834.95, 310.79, 0.000, 0.000, 0.000, 20:52:37.320, 1582471357320
38, 920.64, 637.16, 685.32, 225.60, 0.000, 0.000, 0.000, 20:52:37.320, 1582471357320
39, 907.09, 629.33, 643.63, 189.12, 0.000, 0.000, 0.000, 20:52:37.332, 1582471357332
40, 996.42, 695.37, 822.12, 261.06, 0.000, 0.000, 0.000, 20:52:37.332, 1582471357332
41, 986.90, 674.12, 807.36, 291.58, 0.000, 0.000, 0.000, 20:52:37.348, 1582471357348
42, 996.61, 678.11, 770.05, 264.34, 0.000, 0.000, 0.000, 20:52:37.348, 1582471357348
43, 937.41, 655.21, 653.68, 208.20, 0.000, 0.000, 0.000, 20:52:37.348, 1582471357348
44, 1012.86, 707.13, 824.81, 266.64, 0.000, 0.000, 0.000, 20:52:37.348, 1582471357348
45, 1023.97, 709.25, 836.73, 315.63, 0.000, 0.000, 0.000, 20:52:37.363, 1582471357363
46, 952.75, 647.90, 697.02, 241.13, 0.000, 0.000, 0.000, 20:52:37.363, 1582471357363
47, 967.70, 671.40, 708.44, 229.29, 0.000, 0.000, 0.000, 20:52:37.378, 1582471357378
48, 978.01, 686.46, 788.74, 246.54, 0.000, 0.000, 0.000, 20:52:37.378, 1582471357378
49, 994.44, 683.93, 796.27, 289.21, 0.000, 0.000, 0.000, 20:52:37.379, 1582471357379
50, 957.65, 657.61, 713.78, 245.59, 0.000, 0.000, 0.000, 20:52:37.379, 1582471357379
51, 924.00, 644.47, 679.16, 209.92, 0.000, 0.000, 0.000, 20:52:37.392, 1582471357392
52, 1004.54, 705.59, 814.39, 266.40, 0.000, 0.000, 0.000, 20:52:37.392, 1582471357392
53, 1024.56, 700.31, 832.65, 303.12, 0.000, 0.000, 0.000, 20:52:37.408, 1582471357408
54, 975.55, 663.44, 742.87, 251.87, 0.000, 0.000, 0.000, 20:52:37.408, 1582471357408
55, 977.75, 689.90, 678.37, 230.61, 0.000, 0.000, 0.000, 20:52:37.409, 1582471357409
56, 977.81, 670.35, 807.19, 246.09, 0.000, 0.000, 0.000, 20:52:37.409, 1582471357409
57, 977.12, 661.66, 809.26, 277.08, 0.000, 0.000, 0.000, 20:52:37.423, 1582471357423
58, 948.54, 649.23, 695.53, 237.67, 0.000, 0.000, 0.000, 20:52:37.423, 1582471357423
59, 936.75, 655.62, 676.01, 216.77, 0.000, 0.000, 0.000, 20:52:37.438, 1582471357438
60, 982.84, 682.59, 796.67, 252.26, 0.000, 0.000, 0.000, 20:52:37.438, 1582471357438
61, 1017.58, 699.76, 835.16, 313.79, 0.000, 0.000, 0.000, 20:52:37.439, 1582471357439
62, 930.70, 627.70, 694.46, 227.57, 0.000, 0.000, 0.000, 20:52:37.439, 1582471357439
63, 911.54, 631.56, 646.92, 200.57, 0.000, 0.000, 0.000, 20:52:37.453, 1582471357453
64, 997.06, 698.75, 797.03, 252.83, 0.000, 0.000, 0.000, 20:52:37.453, 1582471357453
65, 1019.13, 710.85, 825.46, 302.23, 0.000, 0.000, 0.000, 20:52:37.468, 1582471357468
66, 984.46, 681.35, 739.44, 252.34, 0.000, 0.000, 0.000, 20:52:37.468, 1582471357468
67, 910.23, 631.04, 668.40, 193.42, 0.000, 0.000, 0.000, 20:52:37.469, 1582471357469
68, 975.62, 684.69, 776.69, 242.08, 0.000, 0.000, 0.000, 20:52:37.469, 1582471357469
69, 1025.37, 705.95, 855.36, 308.35, 0.000, 0.000, 0.000, 20:52:37.483, 1582471357483
70, 939.66, 658.83, 681.98, 231.90, 0.000, 0.000, 0.000, 20:52:37.483, 1582471357483
71, 958.01, 667.89, 701.05, 218.70, 0.000, 0.000, 0.000, 20:52:37.498, 1582471357498
72, 1007.03, 699.69, 816.38, 259.62, 0.000, 0.000, 0.000, 20:52:37.498, 1582471357498
73, 1008.43, 699.65, 811.64, 304.56, 0.000, 0.000, 0.000, 20:52:37.499, 1582471357499
74, 926.35, 650.07, 678.39, 234.49, 0.000, 0.000, 0.000, 20:52:37.499, 1582471357499
75, 893.65, 608.47, 651.34, 188.52, 0.000, 0.000, 0.000, 20:52:37.529, 1582471357529
76, 998.67, 699.84, 818.37, 259.33, 0.000, 0.000, 0.000, 20:52:37.529, 1582471357529
77, 1027.88, 706.93, 833.19, 311.14, 0.000, 0.000, 0.000, 20:52:37.529, 1582471357529
78, 934.09, 644.95, 695.38, 232.37, 0.000, 0.000, 0.000, 20:52:37.529, 1582471357529
79, 922.92, 643.14, 671.79, 207.93, 0.000, 0.000, 0.000, 20:52:37.530, 1582471357530
80, 1007.36, 708.37, 814.52, 262.95, 0.000, 0.000, 0.000, 20:52:37.530, 1582471357530
81, 1047.63, 727.50, 884.52, 326.66, 0.000, 0.000, 0.000, 20:52:37.543, 1582471357543
82, 933.34, 637.58, 704.89, 233.70, 0.000, 0.000, 0.000, 20:52:37.543, 1582471357543
83, 946.64, 656.00, 682.29, 208.92, 0.000, 0.000, 0.000, 20:52:37.558, 1582471357558
84, 988.20, 694.49, 787.02, 253.48, 0.000, 0.000, 0.000, 20:52:37.558, 1582471357558
85, 1037.77, 711.12, 848.40, 311.07, 0.000, 0.000, 0.000, 20:52:37.559, 1582471357559
86, 921.34, 631.64, 680.94, 221.66, 0.000, 0.000, 0.000, 20:52:37.559, 1582471357559
87, 921.70, 628.42, 662.82, 200.02, 0.000, 0.000, 0.000, 20:52:37.572, 1582471357572
88, 999.19, 712.12, 789.62, 261.16, 0.000, 0.000, 0.000, 20:52:37.572, 1582471357572
89, 984.61, 668.35, 827.24, 288.23, 0.000, 0.000, 0.000, 20:52:37.588, 1582471357588
90, 937.46, 640.89, 715.49, 235.08, 0.000, 0.000, 0.000, 20:52:37.588, 1582471357588
91, 924.73, 654.42, 660.20, 206.77, 0.000, 0.000, 0.000, 20:52:37.589, 1582471357589
92, 983.69, 693.39, 787.50, 247.61, 0.000, 0.000, 0.000, 20:52:37.589, 1582471357589
93, 1026.69, 717.64, 827.69, 302.31, 0.000, 0.000, 0.000, 20:52:37.603, 1582471357603
94, 940.37, 643.20, 714.75, 229.74, 0.000, 0.000, 0.000, 20:52:37.603, 1582471357603
95, 943.56, 646.98, 694.93, 206.21, 0.000, 0.000, 0.000, 20:52:37.618, 1582471357618
96, 961.40, 675.51, 764.39, 230.36, 0.000, 0.000, 0.000, 20:52:37.618, 1582471357618
97, 973.05, 667.88, 792.22, 271.52, 0.000, 0.000, 0.000, 20:52:37.618, 1582471357618
98, 976.96, 651.75, 743.80, 242.64, 0.000, 0.000, 0.000, 20:52:37.618, 1582471357618
99, 923.48, 632.36, 707.99, 204.67, 0.000, 0.000, 0.000, 20:52:37.633, 1582471357633
100, 953.06, 667.35, 740.81, 211.30, 0.000, 0.000, 0.000, 20:52:37.633, 1582471357633
101, 943.41, 645.44, 786.16, 262.94, 0.000, 0.000, 0.000, 20:52:37.664, 1582471357664
102, 935.96, 650.34, 689.19, 226.78, 0.000, 0.000, 0.000, 20:52:37.664, 1582471357664
103, 873.83, 605.20, 637.08, 175.87, 0.000, 0.000, 0.000, 20:52:37.664, 1582471357664
104, 1010.31, 708.97, 810.01, 248.87, 0.000, 0.000, 0.000, 20:52:37.664, 1582471357664
105, 1001.45, 707.48, 801.66, 287.51, 0.000, 0.000, 0.000, 20:52:37.665, 1582471357665
106, 915.43, 617.68, 685.58, 210.03, 0.000, 0.000, 0.000, 20:52:37.665, 1582471357665
107, 926.98, 635.31, 685.10, 198.13, 0.000, 0.000, 0.000, 20:52:37.678, 1582471357678
108, 980.74, 677.34, 821.98, 241.35, 0.000, 0.000, 0.000, 20:52:37.678, 1582471357678
109, 971.34, 671.81, 794.47, 266.88, 0.000, 0.000, 0.000, 20:52:37.679, 1582471357679
110, 897.52, 608.19, 656.46, 193.91, 0.000, 0.000, 0.000, 20:52:37.679, 1582471357679
111, 862.97, 587.18, 615.67, 148.07, 0.000, 0.000, 0.000, 20:52:37.693, 1582471357693
112, 929.39, 640.93, 742.15, 189.91, 0.000, 0.000, 0.000, 20:52:37.693, 1582471357693
113, 876.05, 595.95, 683.81, 189.38, 0.000, 0.000, 0.000, 20:52:37.708, 1582471357708
114, 814.38, 516.88, 593.95, 106.42, 0.000, 0.000, 0.000, 20:52:37.708, 1582471357708
115, 782.93, 504.65, 543.50, 63.62, 0.000, 0.000, 0.000, 20:52:37.709, 1582471357709
116, 759.58, 469.39, 585.45, 36.92, 0.000, 0.000, 0.000, 20:52:37.709, 1582471357709
117, 790.87, 475.60, 618.57, 81.87, 0.000, 0.000, 0.000, 20:52:37.723, 1582471357723
118, 665.13, 381.81, 423.50, -35.81, 0.000, 0.000, 0.000, 20:52:37.723, 1582471357723
119, 627.79, 355.60, 394.60, -74.37, 0.000, 0.000, 0.000, 20:52:37.738, 1582471357738
120, 671.98, 374.51, 505.22, -52.10, 0.000, 0.000, 0.000, 20:52:37.738, 1582471357738
121, 654.23, 359.02, 502.38, -21.13, 0.000, 0.000, 0.000, 20:52:37.739, 1582471357739
122, 624.16, 350.37, 377.96, -70.12, 0.000, 0.000, 0.000, 20:52:37.739, 1582471357739
123, 626.11, 352.07, 389.78, -80.13, 0.000, 0.000, 0.000, 20:52:37.752, 1582471357752
124, 698.62, 429.41, 504.79, -32.25, 0.000, 0.000, 0.000, 20:52:37.752, 1582471357752
125, 711.33, 407.11, 538.81, 11.60, 0.000, 0.000, 0.000, 20:52:37.768, 1582471357768
126, 659.37, 380.97, 436.23, -30.99, 0.000, 0.000, 0.000, 20:52:37.768, 1582471357768
127, 673.90, 385.88, 450.63, -46.44, 0.000, 0.000, 0.000, 20:52:37.769, 1582471357769
128, 687.35, 413.77, 497.81, -27.96, 0.000, 0.000, 0.000, 20:52:37.769, 1582471357769
129, 771.00, 466.22, 601.55, 66.37, 0.000, 0.000, 0.000, 20:52:37.783, 1582471357783
130, 711.67, 423.07, 499.90, 24.90, 0.000, 0.000, 0.000, 20:52:37.783, 1582471357783
131, 729.33, 466.71, 456.60, 13.10, 0.000, 0.000, 0.000, 20:52:37.798, 1582471357798
132, 807.57, 511.30, 625.23, 67.33, 0.000, 0.000, 0.000, 20:52:37.798, 1582471357798
133, 841.98, 543.40, 667.17, 139.49, 0.000, 0.000, 0.000, 20:52:37.799, 1582471357799
134, 775.06, 492.04, 533.27, 78.00, 0.000, 0.000, 0.000, 20:52:37.799, 1582471357799
135, 762.92, 480.86, 537.17, 60.07, 0.000, 0.000, 0.000, 20:52:37.812, 1582471357812
136, 884.80, 579.94, 699.31, 132.79, 0.000, 0.000, 0.000, 20:52:37.812, 1582471357812
137, 873.00, 578.73, 684.28, 167.95, 0.000, 0.000, 0.000, 20:52:37.828, 1582471357828
138, 819.85, 523.63, 596.10, 122.38, 0.000, 0.000, 0.000, 20:52:37.828, 1582471357828
139, 810.58, 527.54, 566.90, 97.71, 0.000, 0.000, 0.000, 20:52:37.829, 1582471357829
140, 884.12, 598.52, 675.29, 143.21, 0.000, 0.000, 0.000, 20:52:37.829, 1582471357829
141, 921.26, 627.07, 729.30, 206.42, 0.000, 0.000, 0.000, 20:52:37.842, 1582471357842
142, 873.07, 579.45, 630.87, 156.50, 0.000, 0.000, 0.000, 20:52:37.842, 1582471357842
143, 860.49, 582.53, 629.25, 142.46, 0.000, 0.000, 0.000, 20:52:37.858, 1582471357858
144, 878.15, 590.05, 671.56, 147.48, 0.000, 0.000, 0.000, 20:52:37.858, 1582471357858
145, 894.50, 606.84, 724.33, 201.20, 0.000, 0.000, 0.000, 20:52:37.859, 1582471357859
146, 899.27, 597.26, 667.33, 184.55, 0.000, 0.000, 0.000, 20:52:37.859, 1582471357859
147, 860.90, 596.94, 604.04, 150.62, 0.000, 0.000, 0.000, 20:52:37.872, 1582471357872
148, 933.00, 640.56, 742.12, 196.01, 0.000, 0.000, 0.000, 20:52:37.873, 1582471357873
149, 972.28, 661.98, 814.77, 261.30, 0.000, 0.000, 0.000, 20:52:37.888, 1582471357888
150, 908.46, 613.10, 674.79, 198.39, 0.000, 0.000, 0.000, 20:52:37.888, 1582471357888
151, 892.12, 623.45, 627.18, 178.25, 0.000, 0.000, 0.000, 20:52:37.889, 1582471357889
152, 938.89, 656.89, 739.11, 212.40, 0.000, 0.000, 0.000, 20:52:37.889, 1582471357889
153, 972.64, 676.83, 794.71, 264.71, 0.000, 0.000, 0.000, 20:52:37.902, 1582471357902
154, 904.73, 616.07, 674.98, 202.66, 0.000, 0.000, 0.000, 20:52:37.902, 1582471357902
155, 864.22, 583.09, 623.38, 148.83, 0.000, 0.000, 0.000, 20:52:37.918, 1582471357918
156, 876.11, 596.78, 675.95, 142.13, 0.000, 0.000, 0.000, 20:52:37.918, 1582471357918
157, 961.48, 654.87, 786.84, 235.14, 0.000, 0.000, 0.000, 20:52:37.919, 1582471357919
158, 845.03, 564.23, 599.68, 128.63, 0.000, 0.000, 0.000, 20:52:37.919, 1582471357919
159, 817.92, 535.26, 574.21, 81.21, 0.000, 0.000, 0.000, 20:52:37.933, 1582471357933
160, 782.37, 499.81, 577.36, 41.26, 0.000, 0.000, 0.000, 20:52:37.933, 1582471357933
161, 789.94, 501.62, 619.90, 83.46, 0.000, 0.000, 0.000, 20:52:37.948, 1582471357948
162, 712.04, 421.57, 480.87, -5.30, 0.000, 0.000, 0.000, 20:52:37.948, 1582471357948
163, 693.75, 399.03, 462.71, -37.28, 0.000, 0.000, 0.000, 20:52:37.949, 1582471357949
164, 717.03, 442.39, 496.55, -20.09, 0.000, 0.000, 0.000, 20:52:37.949, 1582471357949
165, 726.93, 430.44, 568.85, 12.68, 0.000, 0.000, 0.000, 20:52:37.962, 1582471357962
166, 685.39, 390.18, 468.48, -28.36, 0.000, 0.000, 0.000, 20:52:37.962, 1582471357962
167, 672.99, 394.68, 421.52, -62.48, 0.000, 0.000, 0.000, 20:52:37.978, 1582471357978
168, 687.20, 418.79, 494.43, -52.86, 0.000, 0.000, 0.000, 20:52:37.978, 1582471357978
169, 708.99, 416.25, 542.92, -3.35, 0.000, 0.000, 0.000, 20:52:37.979, 1582471357979
170, 648.37, 373.43, 419.22, -59.83, 0.000, 0.000, 0.000, 20:52:37.979, 1582471357979
171, 629.04, 365.03, 384.10, -97.23, 0.000, 0.000, 0.000, 20:52:37.993, 1582471357993
172, 679.89, 411.35, 482.00, -64.41, 0.000, 0.000, 0.000, 20:52:37.993, 1582471357993
173, 714.76, 417.08, 558.41, 2.34, 0.000, 0.000, 0.000, 20:52:38.008, 1582471358008
174, 643.66, 357.04, 428.34, -59.46, 0.000, 0.000, 0.000, 20:52:38.008, 1582471358008
175, 589.47, 329.60, 354.53, -117.44, 0.000, 0.000, 0.000, 20:52:38.009, 1582471358009
176, 682.66, 415.02, 457.79, -68.69, 0.000, 0.000, 0.000, 20:52:38.009, 1582471358009
177, 720.60, 428.56, 565.80, -2.51, 0.000, 0.000, 0.000, 20:52:38.023, 1582471358023
178, 673.40, 388.34, 438.91, -49.99, 0.000, 0.000, 0.000, 20:52:38.023, 1582471358023
179, 659.88, 394.97, 401.92, -76.52, 0.000, 0.000, 0.000, 20:52:38.038, 1582471358038
180, 641.99, 385.50, 442.94, -90.27, 0.000, 0.000, 0.000, 20:52:38.038, 1582471358038
181, 717.47, 440.19, 556.01, 8.45, 0.000, 0.000, 0.000, 20:52:38.039, 1582471358039
182, 638.06, 366.41, 425.31, -67.87, 0.000, 0.000, 0.000, 20:52:38.039, 1582471358039
183, 612.67, 355.30, 354.59, -107.84, 0.000, 0.000, 0.000, 20:52:38.053, 1582471358053
184, 663.45, 394.10, 453.13, -74.30, 0.000, 0.000, 0.000, 20:52:38.053, 1582471358053
185, 712.06, 425.63, 551.36, -2.16, 0.000, 0.000, 0.000, 20:52:38.068, 1582471358068
186, 682.39, 376.88, 497.32, -40.24, 0.000, 0.000, 0.000, 20:52:38.068, 1582471358068
187, 578.48, 338.10, 308.08, -128.22, 0.000, 0.000, 0.000, 20:52:38.069, 1582471358069
188, 680.87, 423.59, 442.11, -67.66, 0.000, 0.000, 0.000, 20:52:38.069, 1582471358069
189, 759.67, 453.89, 601.90, 18.71, 0.000, 0.000, 0.000, 20:52:38.083, 1582471358083
190, 622.69, 352.47, 406.36, -73.03, 0.000, 0.000, 0.000, 20:52:38.083, 1582471358083
191, 600.71, 362.74, 350.76, -104.91, 0.000, 0.000, 0.000, 20:52:38.098, 1582471358098
192, 670.57, 412.43, 460.02, -73.97, 0.000, 0.000, 0.000, 20:52:38.098, 1582471358098
193, 760.61, 487.74, 582.76, 33.46, 0.000, 0.000, 0.000, 20:52:38.099, 1582471358099
194, 657.08, 377.47, 439.75, -49.50, 0.000, 0.000, 0.000, 20:52:38.099, 1582471358099
195, 627.75, 376.78, 363.81, -97.58, 0.000, 0.000, 0.000, 20:52:38.113, 1582471358113
196, 685.10, 425.21, 473.52, -54.14, 0.000, 0.000, 0.000, 20:52:38.113, 1582471358113
197, 732.41, 445.38, 561.13, 15.69, 0.000, 0.000, 0.000, 20:52:38.128, 1582471358128
198, 644.85, 377.36, 425.70, -52.28, 0.000, 0.000, 0.000, 20:52:38.128, 1582471358128
199, 655.15, 385.77, 418.10, -69.57, 0.000, 0.000, 0.000, 20:52:38.129, 1582471358129
200, 725.12, 463.93, 497.66, -27.82, 0.000, 0.000, 0.000, 20:52:38.129, 1582471358129
0, 753.95, 465.68, 588.77, 23.62, 0.000, 0.000, 0.000, 20:52:38.143, 1582471358143
1, 684.77, 401.56, 470.67, -28.86, 0.000, 0.000, 0.000, 20:52:38.144, 1582471358144
2, 718.19, 450.04, 493.67, -19.14, 0.000, 0.000, 0.000, 20:52:38.144, 1582471358144
3, 678.56, 440.16, 462.07, -42.79, 0.000, 0.000, 0.000, 20:52:38.157, 1582471358157
4, 720.81, 454.24, 539.07, 18.08, 0.000, 0.000, 0.000, 20:52:38.157, 1582471358157
5, 725.94, 465.09, 469.67, 13.44, 0.000, 0.000, 0.000, 20:52:38.173, 1582471358173
6, 674.42, 410.10, 452.42, -44.50, 0.000, 0.000, 0.000, 20:52:38.173, 1582471358173
7, 699.08, 450.74, 480.46, -34.19, 0.000, 0.000, 0.000, 20:52:38.174, 1582471358174
8, 752.34, 496.25, 573.57, 51.41, 0.000, 0.000, 0.000, 20:52:38.174, 1582471358174
9, 710.38, 451.21, 486.57, 13.80, 0.000, 0.000, 0.000, 20:52:38.188, 1582471358188
10, 669.60, 417.01, 435.91, -42.00, 0.000, 0.000, 0.000, 20:52:38.188, 1582471358188
11, 750.34, 477.87, 544.04, -2.28, 0.000, 0.000, 0.000, 20:52:38.203, 1582471358203
12, 784.12, 514.00, 611.95, 75.91, 0.000, 0.000, 0.000, 20:52:38.203, 1582471358203
13, 736.59, 464.93, 502.42, 22.72, 0.000, 0.000, 0.000, 20:52:38.218, 1582471358218
14, 713.73, 448.75, 475.58, -14.22, 0.000, 0.000, 0.000, 20:52:38.218, 1582471358218
15, 775.07, 506.00, 577.09, 23.22, 0.000, 0.000, 0.000, 20:52:38.219, 1582471358219
16, 800.65, 506.91, 651.55, 79.37, 0.000, 0.000, 0.000, 20:52:38.219, 1582471358219
17, 761.84, 514.68, 481.65, 57.20, 0.000, 0.000, 0.000, 20:52:38.233, 1582471358233
18, 650.73, 409.92, 433.53, -34.68, 0.000, 0.000, 0.000, 20:52:38.233, 1582471358233
19, 714.57, 463.35, 495.45, -12.73, 0.000, 0.000, 0.000, 20:52:38.233, 1582471358233
20, 804.02, 543.91, 610.72, 95.42, 0.000, 0.000, 0.000, 20:52:38.233, 1582471358233
21, 718.79, 457.29, 497.26, 29.34, 0.000, 0.000, 0.000, 20:52:38.248, 1582471358248
22, 721.66, 464.85, 474.62, 6.63, 0.000, 0.000, 0.000, 20:52:38.248, 1582471358248
23, 725.51, 473.70, 506.60, -3.07, 0.000, 0.000, 0.000, 20:52:38.263, 1582471358263
24, 791.90, 519.55, 629.01, 89.65, 0.000, 0.000, 0.000, 20:52:38.263, 1582471358263
25, 736.90, 470.41, 521.31, 58.97, 0.000, 0.000, 0.000, 20:52:38.264, 1582471358264
26, 759.15, 486.19, 525.20, 39.80, 0.000, 0.000, 0.000, 20:52:38.264, 1582471358264
27, 788.33, 519.80, 577.87, 53.57, 0.000, 0.000, 0.000, 20:52:38.294, 1582471358294
28, 846.49, 573.57, 657.35, 128.96, 0.000, 0.000, 0.000, 20:52:38.294, 1582471358294
29, 792.40, 528.22, 567.66, 97.67, 0.000, 0.000, 0.000, 20:52:38.294, 1582471358294
30, 773.68, 497.75, 556.47, 53.98, 0.000, 0.000, 0.000, 20:52:38.294, 1582471358294
31, 713.71, 487.11, 493.13, 18.44, 0.000, 0.000, 0.000, 20:52:38.295, 1582471358295
32, 842.95, 564.48, 667.53, 134.52, 0.000, 0.000, 0.000, 20:52:38.295, 1582471358295
33, 791.77, 529.73, 557.12, 106.18, 0.000, 0.000, 0.000, 20:52:38.308, 1582471358308
34, 775.50, 525.44, 523.13, 68.63, 0.000, 0.000, 0.000, 20:52:38.308, 1582471358308
35, 784.09, 533.30, 566.00, 62.04, 0.000, 0.000, 0.000, 20:52:38.323, 1582471358323
36, 868.16, 594.59, 706.12, 159.75, 0.000, 0.000, 0.000, 20:52:38.323, 1582471358323
37, 797.50, 515.83, 572.49, 96.46, 0.000, 0.000, 0.000, 20:52:38.324, 1582471358324
38, 750.52, 495.18, 522.01, 61.54, 0.000, 0.000, 0.000, 20:52:38.324, 1582471358324
39, 843.89, 564.97, 644.04, 100.82, 0.000, 0.000, 0.000, 20:52:38.337, 1582471358337
40, 875.87, 613.74, 709.55, 180.61, 0.000, 0.000, 0.000, 20:52:38.337, 1582471358337
41, 814.27, 546.99, 588.18, 123.60, 0.000, 0.000, 0.000, 20:52:38.353, 1582471358353
42, 796.39, 540.11, 548.96, 86.40, 0.000, 0.000, 0.000, 20:52:38.353, 1582471358353
43, 850.49, 591.66, 638.08, 118.36, 0.000, 0.000, 0.000, 20:52:38.354, 1582471358354
44, 929.51, 644.11, 771.69, 206.89, 0.000, 0.000, 0.000, 20:52:38.354, 1582471358354
45, 869.97, 588.01, 635.95, 156.09, 0.000, 0.000, 0.000, 20:52:38.367, 1582471358367
46, 775.75, 522.92, 545.04, 87.84, 0.000, 0.000, 0.000, 20:52:38.367, 1582471358367
47, 831.13, 569.44, 613.50, 96.18, 0.000, 0.000, 0.000, 20:52:38.383, 1582471358383
48, 917.74, 629.63, 741.27, 196.54, 0.000, 0.000, 0.000, 20:52:38.383, 1582471358383
49, 854.42, 584.71, 637.05, 158.33, 0.000, 0.000, 0.000, 20:52:38.384, 1582471358384
50, 843.64, 581.84, 601.58, 136.89, 0.000, 0.000, 0.000, 20:52:38.384, 1582471358384
51, 883.81, 611.08, 674.42, 141.07, 0.000, 0.000, 0.000, 20:52:38.397, 1582471358397
52, 962.61, 680.63, 800.73, 233.11, 0.000, 0.000, 0.000, 20:52:38.397, 1582471358397
53, 861.68, 594.41, 644.05, 177.61, 0.000, 0.000, 0.000, 20:52:38.414, 1582471358414
54, 858.84, 606.39, 607.31, 150.16, 0.000, 0.000, 0.000, 20:52:38.414, 1582471358414
55, 883.22, 620.31, 673.19, 156.27, 0.000, 0.000, 0.000, 20:52:38.428, 1582471358428
56, 983.83, 694.96, 835.58, 267.76, 0.000, 0.000, 0.000, 20:52:38.428, 1582471358428
57, 957.31, 674.68, 722.56, 238.99, 0.000, 0.000, 0.000, 20:52:38.429, 1582471358429
58, 920.86, 643.69, 672.53, 200.76, 0.000, 0.000, 0.000, 20:52:38.429, 1582471358429
59, 906.71, 648.94, 680.13, 183.36, 0.000, 0.000, 0.000, 20:52:38.443, 1582471358443
60, 983.56, 698.85, 829.52, 271.49, 0.000, 0.000, 0.000, 20:52:38.443, 1582471358443
61, 943.31, 669.52, 717.18, 241.34, 0.000, 0.000, 0.000, 20:52:38.444, 1582471358444
62, 991.77, 698.23, 758.99, 247.68, 0.000, 0.000, 0.000, 20:52:38.444, 1582471358444
63, 949.12, 667.67, 761.50, 215.49, 0.000, 0.000, 0.000, 20:52:38.457, 1582471358457
64, 1000.38, 737.57, 792.17, 286.59, 0.000, 0.000, 0.000, 20:52:38.457, 1582471358457
65, 989.23, 719.74, 731.21, 278.14, 0.000, 0.000, 0.000, 20:52:38.473, 1582471358473
66, 917.83, 656.07, 675.54, 215.09, 0.000, 0.000, 0.000, 20:52:38.473, 1582471358473
67, 996.72, 717.86, 795.21, 252.09, 0.000, 0.000, 0.000, 20:52:38.474, 1582471358474
68, 1043.60, 764.72, 893.74, 343.52, 0.000, 0.000, 0.000, 20:52:38.474, 1582471358474
69, 987.20, 716.44, 756.59, 288.18, 0.000, 0.000, 0.000, 20:52:38.489, 1582471358489
70, 980.58, 712.18, 726.00, 255.65, 0.000, 0.000, 0.000, 20:52:38.489, 1582471358489
71, 939.46, 684.29, 741.93, 234.76, 0.000, 0.000, 0.000, 20:52:38.503, 1582471358503
72, 1059.43, 763.85, 905.45, 333.90, 0.000, 0.000, 0.000, 20:52:38.503, 1582471358503
73, 981.25, 699.90, 756.06, 282.59, 0.000, 0.000, 0.000, 20:52:38.504, 1582471358504
74, 985.89, 708.18, 744.85, 261.44, 0.000, 0.000, 0.000, 20:52:38.504, 1582471358504
75, 1037.73, 747.41, 828.91, 283.92, 0.000, 0.000, 0.000, 20:52:38.518, 1582471358518
76, 1075.25, 792.33, 918.13, 358.04, 0.000, 0.000, 0.000, 20:52:38.518, 1582471358518
77, 980.58, 710.00, 759.08, 296.02, 0.000, 0.000, 0.000, 20:52:38.533, 1582471358533
78, 1049.80, 764.05, 801.95, 304.29, 0.000, 0.000, 0.000, 20:52:38.533, 1582471358533
79, 1014.04, 755.57, 758.68, 277.40, 0.000, 0.000, 0.000, 20:52:38.534, 1582471358534
80, 1088.38, 788.64, 920.30, 354.54, 0.000, 0.000, 0.000, 20:52:38.534, 1582471358534
81, 994.45, 722.23, 765.24, 300.53, 0.000, 0.000, 0.000, 20:52:38.547, 1582471358547
82, 935.75, 660.78, 728.40, 235.75, 0.000, 0.000, 0.000, 20:52:38.547, 1582471358547
83, 955.13, 693.24, 733.85, 236.29, 0.000, 0.000, 0.000, 20:52:38.563, 1582471358563
84, 1069.67, 759.34, 924.50, 331.78, 0.000, 0.000, 0.000, 20:52:38.563, 1582471358563
85, 961.07, 672.86, 760.10, 272.60, 0.000, 0.000, 0.000, 20:52:38.564, 1582471358564
86, 913.77, 648.77, 663.39, 204.38, 0.000, 0.000, 0.000, 20:52:38.564, 1582471358564
87, 923.82, 651.53, 704.96, 194.70, 0.000, 0.000, 0.000, 20:52:38.578, 1582471358578
88, 1032.96, 746.29, 841.54, 298.38, 0.000, 0.000, 0.000, 20:52:38.578, 1582471358578
89, 937.66, 644.68, 724.07, 241.67, 0.000, 0.000, 0.000, 20:52:38.593, 1582471358593
90, 895.26, 612.63, 658.96, 181.02, 0.000, 0.000, 0.000, 20:52:38.593, 1582471358593
91, 942.43, 643.75, 727.33, 188.92, 0.000, 0.000, 0.000, 20:52:38.593, 1582471358593
92, 1036.77, 728.18, 896.23, 303.90, 0.000, 0.000, 0.000, 20:52:38.593, 1582471358593
93, 979.92, 708.41, 731.26, 276.43, 0.000, 0.000, 0.000, 20:52:38.608, 1582471358608
94, 919.81, 645.22, 683.56, 202.55, 0.000, 0.000, 0.000, 20:52:38.608, 1582471358608
95, 990.81, 718.86, 766.03, 244.22, 0.000, 0.000, 0.000, 20:52:38.623, 1582471358623
96, 1036.52, 747.77, 895.61, 320.80, 0.000, 0.000, 0.000, 20:52:38.623, 1582471358623
97, 969.64, 685.48, 747.97, 271.90, 0.000, 0.000, 0.000, 20:52:38.624, 1582471358624
98, 956.97, 689.04, 708.16, 247.08, 0.000, 0.000, 0.000, 20:52:38.624, 1582471358624
99, 1017.59, 725.67, 791.48, 257.91, 0.000, 0.000, 0.000, 20:52:38.638, 1582471358638
100, 1035.67, 736.39, 874.16, 304.02, 0.000, 0.000, 0.000, 20:52:38.638, 1582471358638
101, 992.08, 689.45, 778.68, 277.47, 0.000, 0.000, 0.000, 20:52:38.653, 1582471358653
102, 937.62, 646.05, 715.07, 217.28, 0.000, 0.000, 0.000, 20:52:38.653, 1582471358653
103, 910.15, 631.24, 696.69, 183.00, 0.000, 0.000, 0.000, 20:52:38.654, 1582471358654
104, 945.95, 663.05, 756.49, 236.92, 0.000, 0.000, 0.000, 20:52:38.654, 1582471358654
105, 900.42, 612.84, 680.42, 202.00, 0.000, 0.000, 0.000, 20:52:38.667, 1582471358667
106, 888.56, 601.60, 654.50, 168.94, 0.000, 0.000, 0.000, 20:52:38.667, 1582471358667
107, 960.18, 667.86, 740.24, 198.37, 0.000, 0.000, 0.000, 20:52:38.683, 1582471358683
108, 966.84, 676.21, 804.06, 249.69, 0.000, 0.000, 0.000, 20:52:38.683, 1582471358683
109, 928.92, 652.98, 698.69, 227.13, 0.000, 0.000, 0.000, 20:52:38.684, 1582471358684
110, 984.36, 685.52, 744.80, 233.61, 0.000, 0.000, 0.000, 20:52:38.684, 1582471358684
111, 1004.50, 725.45, 784.93, 250.37, 0.000, 0.000, 0.000, 20:52:38.697, 1582471358697
112, 966.93, 699.73, 795.42, 270.68, 0.000, 0.000, 0.000, 20:52:38.697, 1582471358697
113, 927.96, 653.43, 727.31, 253.27, 0.000, 0.000, 0.000, 20:52:38.713, 1582471358713
114, 920.53, 650.10, 689.87, 215.41, 0.000, 0.000, 0.000, 20:52:38.713, 1582471358713
115, 928.98, 660.90, 701.34, 205.09, 0.000, 0.000, 0.000, 20:52:38.714, 1582471358714
116, 1014.67, 719.85, 849.38, 296.82, 0.000, 0.000, 0.000, 20:52:38.714, 1582471358714
117, 947.56, 646.07, 731.64, 242.50, 0.000, 0.000, 0.000, 20:52:38.728, 1582471358728
118, 954.25, 665.09, 700.25, 219.60, 0.000, 0.000, 0.000, 20:52:38.728, 1582471358728
119, 986.65, 696.82, 756.08, 231.14, 0.000, 0.000, 0.000, 20:52:38.743, 1582471358743
120, 1054.84, 744.12, 871.88, 300.03, 0.000, 0.000, 0.000, 20:52:38.743, 1582471358743
121, 930.61, 629.00, 727.96, 236.11, 0.000, 0.000, 0.000, 20:52:38.744, 1582471358744
122, 952.41, 658.79, 722.95, 223.29, 0.000, 0.000, 0.000, 20:52:38.744, 1582471358744
123, 953.77, 675.92, 709.90, 211.04, 0.000, 0.000, 0.000, 20:52:38.774, 1582471358774
124, 1035.65, 739.05, 875.74, 310.91, 0.000, 0.000, 0.000, 20:52:38.774, 1582471358774
125, 1002.16, 702.15, 807.63, 299.14, 0.000, 0.000, 0.000, 20:52:38.774, 1582471358774
126, 938.90, 674.92, 697.76, 239.54, 0.000, 0.000, 0.000, 20:52:38.774, 1582471358774
127, 990.98, 718.26, 753.32, 249.82, 0.000, 0.000, 0.000, 20:52:38.775, 1582471358775
128, 1088.29, 793.93, 914.77, 346.20, 0.000, 0.000, 0.000, 20:52:38.775, 1582471358775
129, 1026.37, 728.90, 823.09, 320.90, 0.000, 0.000, 0.000, 20:52:38.788, 1582471358788
130, 988.88, 705.88, 750.90, 278.16, 0.000, 0.000, 0.000, 20:52:38.788, 1582471358788
131, 972.47, 701.78, 744.51, 250.56, 0.000, 0.000, 0.000, 20:52:38.803, 1582471358803
132, 1064.30, 754.48, 889.94, 326.08, 0.000, 0.000, 0.000, 20:52:38.803, 1582471358803
133, 985.61, 674.92, 796.68, 285.81, 0.000, 0.000, 0.000, 20:52:38.804, 1582471358804
134, 936.55, 645.86, 710.58, 230.02, 0.000, 0.000, 0.000, 20:52:38.804, 1582471358804
135, 934.51, 662.22, 695.92, 207.54, 0.000, 0.000, 0.000, 20:52:38.818, 1582471358818
136, 1065.94, 758.40, 837.53, 300.92, 0.000, 0.000, 0.000, 20:52:38.818, 1582471358818
137, 984.97, 691.37, 757.04, 276.80, 0.000, 0.000, 0.000, 20:52:38.833, 1582471358833
138, 917.53, 623.61, 710.45, 210.43, 0.000, 0.000, 0.000, 20:52:38.833, 1582471358833
139, 973.33, 689.09, 733.00, 228.56, 0.000, 0.000, 0.000, 20:52:38.834, 1582471358834
140, 1051.16, 761.77, 888.53, 315.61, 0.000, 0.000, 0.000, 20:52:38.834, 1582471358834
141, 974.42, 673.37, 766.35, 274.78, 0.000, 0.000, 0.000, 20:52:38.848, 1582471358848
142, 983.25, 707.24, 738.16, 263.91, 0.000, 0.000, 0.000, 20:52:38.848, 1582471358848
143, 1016.08, 731.38, 815.53, 269.03, 0.000, 0.000, 0.000, 20:52:38.863, 1582471358863
144, 1027.44, 739.33, 872.04, 317.64, 0.000, 0.000, 0.000, 20:52:38.863, 1582471358863
145, 995.73, 709.08, 780.53, 303.38, 0.000, 0.000, 0.000, 20:52:38.864, 1582471358864
146, 975.74, 677.81, 765.94, 262.80, 0.000, 0.000, 0.000, 20:52:38.864, 1582471358864
147, 953.65, 684.47, 704.87, 233.82, 0.000, 0.000, 0.000, 20:52:38.878, 1582471358878
148, 1008.67, 718.00, 840.42, 300.24, 0.000, 0.000, 0.000, 20:52:38.878, 1582471358878
149, 950.52, 650.48, 733.68, 250.80, 0.000, 0.000, 0.000, 20:52:38.893, 1582471358893
150, 918.97, 637.40, 673.70, 205.73, 0.000, 0.000, 0.000, 20:52:38.893, 1582471358893
151, 902.51, 619.79, 675.47, 176.91, 0.000, 0.000, 0.000, 20:52:38.894, 1582471358894
152, 1030.00, 702.94, 882.84, 282.54, 0.000, 0.000, 0.000, 20:52:38.894, 1582471358894
153, 945.45, 658.60, 720.59, 252.31, 0.000, 0.000, 0.000, 20:52:38.908, 1582471358908
154, 953.41, 673.29, 691.82, 233.45, 0.000, 0.000, 0.000, 20:52:38.908, 1582471358908
155, 973.08, 688.53, 747.30, 232.39, 0.000, 0.000, 0.000, 20:52:38.923, 1582471358923
156, 1007.89, 722.66, 839.26, 292.15, 0.000, 0.000, 0.000, 20:52:38.923, 1582471358923
157, 994.76, 683.36, 813.49, 292.51, 0.000, 0.000, 0.000, 20:52:38.924, 1582471358924
158, 943.71, 662.07, 712.97, 239.23, 0.000, 0.000, 0.000, 20:52:38.924, 1582471358924
159, 989.20, 696.83, 765.28, 240.24, 0.000, 0.000, 0.000, 20:52:38.938, 1582471358938
160, 1019.08, 727.14, 855.75, 300.13, 0.000, 0.000, 0.000, 20:52:38.938, 1582471358938
161, 974.60, 686.13, 740.45, 281.91, 0.000, 0.000, 0.000, 20:52:38.953, 1582471358953
162, 914.08, 639.47, 675.75, 219.22, 0.000, 0.000, 0.000, 20:52:38.953, 1582471358953
163, 933.92, 662.81, 695.59, 215.41, 0.000, 0.000, 0.000, 20:52:38.954, 1582471358954
164, 1022.33, 722.37, 843.31, 294.59, 0.000, 0.000, 0.000, 20:52:38.954, 1582471358954
165, 933.95, 630.81, 730.27, 245.52, 0.000, 0.000, 0.000, 20:52:38.967, 1582471358967
166, 932.36, 647.72, 671.62, 211.37, 0.000, 0.000, 0.000, 20:52:38.967, 1582471358967
167, 960.75, 665.17, 708.04, 204.05, 0.000, 0.000, 0.000, 20:52:38.983, 1582471358983
168, 972.78, 663.37, 820.23, 249.29, 0.000, 0.000, 0.000, 20:52:38.983, 1582471358983
169, 984.63, 669.52, 765.20, 269.79, 0.000, 0.000, 0.000, 20:52:38.984, 1582471358984
170, 934.47, 650.62, 696.29, 223.02, 0.000, 0.000, 0.000, 20:52:38.984, 1582471358984
171, 937.77, 655.66, 712.83, 215.84, 0.000, 0.000, 0.000, 20:52:38.997, 1582471358997
172, 1061.29, 745.06, 922.12, 324.50, 0.000, 0.000, 0.000, 20:52:38.997, 1582471358997
173, 1010.96, 701.28, 801.07, 303.91, 0.000, 0.000, 0.000, 20:52:39.013, 1582471359013
174, 966.85, 681.45, 717.54, 249.92, 0.000, 0.000, 0.000, 20:52:39.013, 1582471359013
175, 978.39, 699.18, 737.08, 246.79, 0.000, 0.000, 0.000, 20:52:39.014, 1582471359014
176, 1029.36, 733.52, 857.63, 310.01, 0.000, 0.000, 0.000, 20:52:39.014, 1582471359014
177, 1023.83, 713.86, 805.86, 310.25, 0.000, 0.000, 0.000, 20:52:39.027, 1582471359027
178, 955.69, 668.42, 712.53, 237.50, 0.000, 0.000, 0.000, 20:52:39.027, 1582471359027
179, 936.71, 646.46, 695.88, 204.04, 0.000, 0.000, 0.000, 20:52:39.043, 1582471359043
180, 1016.34, 718.04, 843.44, 291.58, 0.000, 0.000, 0.000, 20:52:39.043, 1582471359043
181, 990.67, 678.85, 758.42, 272.69, 0.000, 0.000, 0.000, 20:52:39.044, 1582471359044
182, 933.02, 630.11, 691.64, 213.19, 0.000, 0.000, 0.000, 20:52:39.044, 1582471359044
183, 939.87, 643.63, 678.24, 198.95, 0.000, 0.000, 0.000, 20:52:39.057, 1582471359057
184, 981.17, 670.39, 828.52, 268.98, 0.000, 0.000, 0.000, 20:52:39.057, 1582471359057
185, 1001.06, 690.89, 772.35, 293.01, 0.000, 0.000, 0.000, 20:52:39.073, 1582471359073
186, 969.94, 675.23, 724.01, 251.32, 0.000, 0.000, 0.000, 20:52:39.073, 1582471359073
187, 975.38, 685.35, 740.41, 249.01, 0.000, 0.000, 0.000, 20:52:39.074, 1582471359074
188, 1050.82, 734.96, 909.36, 324.72, 0.000, 0.000, 0.000, 20:52:39.074, 1582471359074
189, 1048.53, 734.71, 837.21, 337.25, 0.000, 0.000, 0.000, 20:52:39.087, 1582471359087
190, 991.47, 690.28, 763.74, 278.11, 0.000, 0.000, 0.000, 20:52:39.088, 1582471359088
191, 968.66, 673.77, 735.76, 239.14, 0.000, 0.000, 0.000, 20:52:39.103, 1582471359103
192, 1054.94, 748.14, 888.82, 324.81, 0.000, 0.000, 0.000, 20:52:39.103, 1582471359103
193, 1061.10, 735.79, 830.60, 332.08, 0.000, 0.000, 0.000, 20:52:39.104, 1582471359104
194, 980.60, 678.53, 752.60, 262.67, 0.000, 0.000, 0.000, 20:52:39.104, 1582471359104
195, 922.35, 664.07, 637.17, 205.66, 0.000, 0.000, 0.000, 20:52:39.117, 1582471359117
196, 1033.37, 708.85, 876.42, 290.47, 0.000, 0.000, 0.000, 20:52:39.117, 1582471359117
197, 947.83, 642.86, 714.85, 254.89, 0.000, 0.000, 0.000, 20:52:39.133, 1582471359133
198, 924.48, 620.92, 663.80, 205.16, 0.000, 0.000, 0.000, 20:52:39.133, 1582471359133
199, 933.16, 629.25, 675.88, 198.02, 0.000, 0.000, 0.000, 20:52:39.134, 1582471359134
200, 1009.88, 676.22, 843.86, 286.17, 0.000, 0.000, 0.000, 20:52:39.134, 1582471359134
0, 1001.01, 654.97, 812.06, 292.18, 0.000, 0.000, 0.000, 20:52:39.148, 1582471359148
1, 1003.40, 671.56, 742.82, 263.21, 0.000, 0.000, 0.000, 20:52:39.149, 1582471359149
2, 983.73, 671.12, 739.41, 245.85, 0.000, 0.000, 0.000, 20:52:39.149, 1582471359149
3, 1050.57, 738.40, 880.19, 317.94, 0.000, 0.000, 0.000, 20:52:39.162, 1582471359162
4, 1008.52, 687.31, 781.60, 301.06, 0.000, 0.000, 0.000, 20:52:39.162, 1582471359162
5, 1005.37, 678.39, 755.60, 258.94, 0.000, 0.000, 0.000, 20:52:39.178, 1582471359178
6, 1011.67, 694.29, 781.71, 255.01, 0.000, 0.000, 0.000, 20:52:39.178, 1582471359178
7, 1061.47, 728.65, 888.59, 321.50, 0.000, 0.000, 0.000, 20:52:39.179, 1582471359179
8, 1009.52, 685.08, 781.75, 301.96, 0.000, 0.000, 0.000, 20:52:39.179, 1582471359179
9, 955.57, 655.58, 673.95, 236.32, 0.000, 0.000, 0.000, 20:52:39.192, 1582471359192
10, 967.09, 659.23, 697.35, 228.09, 0.000, 0.000, 0.000, 20:52:39.192, 1582471359192
11, 1037.76, 701.39, 847.86, 299.28, 0.000, 0.000, 0.000, 20:52:39.208, 1582471359208
12, 1009.99, 661.03, 803.72, 293.83, 0.000, 0.000, 0.000, 20:52:39.208, 1582471359208
13, 908.55, 586.47, 664.61, 205.88, 0.000, 0.000, 0.000, 20:52:39.209, 1582471359209
14, 918.84, 604.18, 648.75, 189.04, 0.000, 0.000, 0.000, 20:52:39.209, 1582471359209
15, 1024.80, 673.78, 821.80, 281.76, 0.000, 0.000, 0.000, 20:52:39.222, 1582471359222
16, 1020.07, 658.62, 799.05, 291.92, 0.000, 0.000, 0.000, 20:52:39.222, 1582471359222
17, 965.21, 628.94, 721.51, 245.38, 0.000, 0.000, 0.000, 20:52:39.238, 1582471359238
18, 955.22, 634.18, 707.86, 218.92, 0.000, 0.000, 0.000, 20:52:39.238, 1582471359238
19, 1053.73, 703.12, 869.20, 307.73, 0.000, 0.000, 0.000, 20:52:39.239, 1582471359239
20, 991.78, 663.44, 744.71, 289.92, 0.000, 0.000, 0.000, 20:52:39.239, 1582471359239
21, 1003.79, 677.73, 723.78, 262.62, 0.000, 0.000, 0.000, 20:52:39.252, 1582471359252
22, 987.44, 651.29, 743.99, 237.29, 0.000, 0.000, 0.000, 20:52:39.252, 1582471359252
23, 1030.71, 692.20, 841.67, 296.57, 0.000, 0.000, 0.000, 20:52:39.268, 1582471359268
24, 996.70, 662.14, 753.19, 287.84, 0.000, 0.000, 0.000, 20:52:39.268, 1582471359268
25, 950.02, 624.38, 690.84, 242.95, 0.000, 0.000, 0.000, 20:52:39.269, 1582471359269
26, 972.64, 646.79, 690.31, 221.13, 0.000, 0.000, 0.000, 20:52:39.269, 1582471359269
27, 1013.54, 677.78, 816.16, 277.49, 0.000, 0.000, 0.000, 20:52:39.283, 1582471359283
28, 988.33, 641.68, 762.12, 281.94, 0.000, 0.000, 0.000, 20:52:39.283, 1582471359283
29, 940.40, 594.10, 691.03, 218.08, 0.000, 0.000, 0.000, 20:52:39.298, 1582471359298
30, 976.73, 637.06, 682.45, 217.67, 0.000, 0.000, 0.000, 20:52:39.298, 1582471359298
31, 1007.76, 657.46, 812.60, 267.45, 0.000, 0.000, 0.000, 20:52:39.299, 1582471359299
32, 999.46, 623.04, 775.53, 278.07, 0.000, 0.000, 0.000, 20:52:39.299, 1582471359299
33, 980.39, 614.25, 734.21, 237.39, 0.000, 0.000, 0.000, 20:52:39.329, 1582471359329
34, 945.60, 614.07, 668.49, 204.94, 0.000, 0.000, 0.000, 20:52:39.329, 1582471359329
35, 1020.96, 676.52, 822.81, 276.33, 0.000, 0.000, 0.000, 20:52:39.329, 1582471359329
36, 992.77, 633.81, 753.95, 273.00, 0.000, 0.000, 0.000, 20:52:39.329, 1582471359329
37, 996.97, 641.61, 726.12, 249.65, 0.000, 0.000, 0.000, 20:52:39.330, 1582471359330
38, 1004.01, 664.34, 715.62, 235.18, 0.000, 0.000, 0.000, 20:52:39.330, 1582471359330
39, 1067.70, 704.87, 851.78, 301.52, 0.000, 0.000, 0.000, 20:52:39.343, 1582471359343
40, 951.80, 612.15, 704.43, 255.44, 0.000, 0.000, 0.000, 20:52:39.343, 1582471359343
41, 925.25, 575.79, 651.16, 206.24, 0.000, 0.000, 0.000, 20:52:39.358, 1582471359358
42, 954.64, 614.01, 665.08, 208.16, 0.000, 0.000, 0.000, 20:52:39.358, 1582471359358
43, 1001.57, 635.37, 827.26, 267.20, 0.000, 0.000, 0.000, 20:52:39.359, 1582471359359
44, 944.81, 592.13, 680.44, 235.21, 0.000, 0.000, 0.000, 20:52:39.359, 1582471359359
45, 899.54, 549.80, 629.64, 192.98, 0.000, 0.000, 0.000, 20:52:39.373, 1582471359373
46, 972.06, 600.76, 696.97, 209.01, 0.000, 0.000, 0.000, 20:52:39.373, 1582471359373
47, 990.39, 626.30, 770.63, 243.94, 0.000, 0.000, 0.000, 20:52:39.388, 1582471359388
48, 938.41, 574.30, 709.57, 235.19, 0.000, 0.000, 0.000, 20:52:39.388, 1582471359388
49, 920.81, 559.78, 670.62, 199.31, 0.000, 0.000, 0.000, 20:52:39.389, 1582471359389
50, 931.06, 584.51, 641.63, 179.72, 0.000, 0.000, 0.000, 20:52:39.389, 1582471359389
51, 1037.05, 665.34, 830.66, 279.45, 0.000, 0.000, 0.000, 20:52:39.403, 1582471359403
52, 991.86, 632.79, 740.87, 279.01, 0.000, 0.000, 0.000, 20:52:39.403, 1582471359403
53, 976.38, 619.85, 707.30, 240.18, 0.000, 0.000, 0.000, 20:52:39.418, 1582471359418
54, 946.74, 606.00, 675.83, 212.04, 0.000, 0.000, 0.000, 20:52:39.418, 1582471359418
55, 1032.55, 680.35, 820.17, 284.28, 0.000, 0.000, 0.000, 20:52:39.419, 1582471359419
56, 975.99, 621.83, 727.02, 269.99, 0.000, 0.000, 0.000, 20:52:39.419, 1582471359419
57, 921.33, 586.05, 658.66, 220.11, 0.000, 0.000, 0.000, 20:52:39.432, 1582471359432
58, 945.85, 616.11, 614.16, 203.02, 0.000, 0.000, 0.000, 20:52:39.432, 1582471359432
59, 1025.09, 666.24, 789.96, 269.70, 0.000, 0.000, 0.000, 20:52:39.448, 1582471359448
60, 964.28, 598.20, 712.45, 247.58, 0.000, 0.000, 0.000, 20:52:39.448, 1582471359448
61, 890.66, 534.14, 615.56, 172.14, 0.000, 0.000, 0.000, 20:52:39.449, 1582471359449
62, 851.13, 492.94, 590.45, 123.07, 0.000, 0.000, 0.000, 20:52:39.449, 1582471359449
63, 966.14, 588.59, 770.04, 216.95, 0.000, 0.000, 0.000, 20:52:39.463, 1582471359463
64, 943.85, 561.34, 716.75, 224.67, 0.000, 0.000, 0.000, 20:52:39.463, 1582471359463
65, 905.13, 525.63, 640.25, 157.92, 0.000, 0.000, 0.000, 20:52:39.478, 1582471359478
66, 918.99, 534.80, 671.69, 157.96, 0.000, 0.000, 0.000, 20:52:39.478, 1582471359478
67, 993.76, 623.95, 786.76, 242.70, 0.000, 0.000, 0.000, 20:52:39.479, 1582471359479
68, 994.23, 619.41, 727.17, 261.39, 0.000, 0.000, 0.000, 20:52:39.479, 1582471359479
69, 923.01, 571.71, 655.10, 211.64, 0.000, 0.000, 0.000, 20:52:39.493, 1582471359493
70, 955.27, 603.53, 659.13, 204.98, 0.000, 0.000, 0.000, 20:52:39.493, 1582471359493
71, 998.83, 646.16, 752.60, 253.51, 0.000, 0.000, 0.000, 20:52:39.508, 1582471359508
72, 973.12, 603.55, 728.51, 263.02, 0.000, 0.000, 0.000, 20:52:39.508, 1582471359508
73, 908.03, 542.04, 661.40, 191.76, 0.000, 0.000, 0.000, 20:52:39.509, 1582471359509
74, 891.82, 579.10, 577.78, 176.76, 0.000, 0.000, 0.000, 20:52:39.509, 1582471359509
75, 941.96, 595.69, 728.46, 218.80, 0.000, 0.000, 0.000, 20:52:39.522, 1582471359522
76, 943.23, 567.33, 695.24, 226.78, 0.000, 0.000, 0.000, 20:52:39.522, 1582471359522
77, 873.94, 518.78, 583.40, 151.45, 0.000, 0.000, 0.000, 20:52:39.538, 1582471359538
78, 916.17, 548.07, 624.25, 146.59, 0.000, 0.000, 0.000, 20:52:39.538, 1582471359538
79, 930.71, 560.59, 706.97, 179.84, 0.000, 0.000, 0.000, 20:52:39.539, 1582471359539
80, 879.71, 496.39, 635.36, 166.75, 0.000, 0.000, 0.000, 20:52:39.539, 1582471359539
81, 856.38, 491.63, 581.73, 135.38, 0.000, 0.000, 0.000, 20:52:39.552, 1582471359552
82, 908.00, 534.33, 618.56, 146.23, 0.000, 0.000, 0.000, 20:52:39.552, 1582471359552
83, 990.65, 606.11, 782.16, 220.54, 0.000, 0.000, 0.000, 20:52:39.568, 1582471359568
84, 947.68, 574.72, 680.16, 230.65, 0.000, 0.000, 0.000, 20:52:39.568, 1582471359568
85, 895.48, 533.87, 603.59, 170.42, 0.000, 0.000, 0.000, 20:52:39.569, 1582471359569
86, 845.77, 506.97, 561.59, 122.99, 0.000, 0.000, 0.000, 20:52:39.569, 1582471359569
87, 921.43, 562.12, 705.12, 186.46, 0.000, 0.000, 0.000, 20:52:39.583, 1582471359583
88, 871.63, 501.88, 629.08, 171.42, 0.000, 0.000, 0.000, 20:52:39.583, 1582471359583
89, 843.62, 490.97, 556.38, 127.87, 0.000, 0.000, 0.000, 20:52:39.598, 1582471359598
90, 816.75, 485.72, 517.17, 92.93, 0.000, 0.000, 0.000, 20:52:39.598, 1582471359598
91, 878.52, 517.42, 666.05, 142.84, 0.000, 0.000, 0.000, 20:52:39.599, 1582471359599
92, 859.56, 488.56, 622.97, 147.56, 0.000, 0.000, 0.000, 20:52:39.599, 1582471359599
93, 783.32, 445.05, 482.11, 71.91, 0.000, 0.000, 0.000, 20:52:39.613, 1582471359613
94, 788.65, 432.64, 491.91, 42.75, 0.000, 0.000, 0.000, 20:52:39.613, 1582471359613
95, 868.26, 500.15, 633.84, 111.35, 0.000, 0.000, 0.000, 20:52:39.628, 1582471359628
96, 788.58, 423.06, 550.11, 88.43, 0.000, 0.000, 0.000, 20:52:39.628, 1582471359628
97, 777.27, 397.88, 523.49, 42.06, 0.000, 0.000, 0.000, 20:52:39.629, 1582471359629
98, 860.09, 466.78, 578.33, 74.82, 0.000, 0.000, 0.000, 20:52:39.629, 1582471359629
99, 832.91, 478.00, 604.25, 91.64, 0.000, 0.000, 0.000, 20:52:39.643, 1582471359643
100, 814.64, 464.44, 561.46, 118.78, 0.000, 0.000, 0.000, 20:52:39.643, 1582471359643
101, 714.65, 368.63, 451.65, 34.62, 0.000, 0.000, 0.000, 20:52:39.658, 1582471359658
102, 733.02, 399.71, 451.35, 22.77, 0.000, 0.000, 0.000, 20:52:39.658, 1582471359658
103, 834.49, 485.18, 624.45, 103.41, 0.000, 0.000, 0.000, 20:52:39.659, 1582471359659
104, 852.90, 470.87, 627.58, 135.60, 0.000, 0.000, 0.000, 20:52:39.659, 1582471359659
105, 736.02, 406.09, 458.98, 45.04, 0.000, 0.000, 0.000, 20:52:39.672, 1582471359672
106, 730.82, 403.55, 431.42, 10.24, 0.000, 0.000, 0.000, 20:52:39.672, 1582471359672
107, 854.77, 500.49, 628.40, 99.02, 0.000, 0.000, 0.000, 20:52:39.688, 1582471359688
108, 788.80, 430.60, 556.08, 88.70, 0.000, 0.000, 0.000, 20:52:39.688, 1582471359688
109, 748.25, 400.45, 460.87, 38.08, 0.000, 0.000, 0.000, 20:52:39.689, 1582471359689
110, 797.38, 445.48, 494.64, 47.95, 0.000, 0.000, 0.000, 20:52:39.689, 1582471359689
111, 879.44, 495.48, 681.05, 105.00, 0.000, 0.000, 0.000, 20:52:39.703, 1582471359703
112, 772.45, 413.85, 529.28, 79.62, 0.000, 0.000, 0.000, 20:52:39.703, 1582471359703
113, 747.81, 387.83, 476.64, 41.42, 0.000, 0.000, 0.000, 20:52:39.718, 1582471359718
114, 748.89, 411.24, 455.94, 27.60, 0.000, 0.000, 0.000, 20:52:39.718, 1582471359718
115, 844.44, 489.93, 610.49, 107.52, 0.000, 0.000, 0.000, 20:52:39.719, 1582471359719
116, 874.65, 495.25, 633.90, 159.70, 0.000, 0.000, 0.000, 20:52:39.719, 1582471359719
117, 831.12, 468.51, 562.15, 112.09, 0.000, 0.000, 0.000, 20:52:39.749, 1582471359749
118, 788.90, 453.69, 497.33, 73.43, 0.000, 0.000, 0.000, 20:52:39.749, 1582471359749
119, 872.33, 507.78, 675.86, 140.21, 0.000, 0.000, 0.000, 20:52:39.749, 1582471359749
120, 844.99, 489.83, 601.60, 147.53, 0.000, 0.000, 0.000, 20:52:39.749, 1582471359749
121, 825.56, 480.46, 538.34, 109.05, 0.000, 0.000, 0.000, 20:52:39.750, 1582471359750
122, 868.58, 522.65, 566.68, 110.71, 0.000, 0.000, 0.000, 20:52:39.750, 1582471359750
123, 906.79, 554.93, 690.97, 160.74, 0.000, 0.000, 0.000, 20:52:39.763, 1582471359763
124, 866.92, 513.08, 637.80, 162.78, 0.000, 0.000, 0.000, 20:52:39.763, 1582471359763
125, 824.50, 475.00, 546.50, 99.08, 0.000, 0.000, 0.000, 20:52:39.778, 1582471359778
126, 833.83, 496.86, 531.65, 84.99, 0.000, 0.000, 0.000, 20:52:39.778, 1582471359778
127, 871.74, 525.64, 646.12, 128.03, 0.000, 0.000, 0.000, 20:52:39.779, 1582471359779
128, 900.95, 529.63, 644.47, 170.33, 0.000, 0.000, 0.000, 20:52:39.779, 1582471359779
129, 836.04, 482.36, 542.97, 111.02, 0.000, 0.000, 0.000, 20:52:39.792, 1582471359792
130, 797.30, 459.72, 501.46, 68.84, 0.000, 0.000, 0.000, 20:52:39.792, 1582471359792
131, 876.23, 512.54, 679.42, 139.89, 0.000, 0.000, 0.000, 20:52:39.808, 1582471359808
132, 886.94, 524.75, 655.17, 178.88, 0.000, 0.000, 0.000, 20:52:39.808, 1582471359808
133, 819.94, 479.19, 533.12, 117.82, 0.000, 0.000, 0.000, 20:52:39.809, 1582471359809
134, 819.90, 481.78, 521.08, 96.00, 0.000, 0.000, 0.000, 20:52:39.809, 1582471359809
135, 898.76, 547.10, 688.33, 155.52, 0.000, 0.000, 0.000, 20:52:39.822, 1582471359822
136, 902.38, 545.64, 663.00, 194.39, 0.000, 0.000, 0.000, 20:52:39.822, 1582471359822
137, 880.63, 528.20, 610.11, 161.11, 0.000, 0.000, 0.000, 20:52:39.838, 1582471359838
138, 874.69, 541.78, 581.43, 146.76, 0.000, 0.000, 0.000, 20:52:39.838, 1582471359838
139, 895.70, 556.88, 671.82, 163.85, 0.000, 0.000, 0.000, 20:52:39.839, 1582471359839
140, 924.62, 549.88, 700.34, 205.34, 0.000, 0.000, 0.000, 20:52:39.839, 1582471359839
141, 871.52, 539.79, 593.08, 161.91, 0.000, 0.000, 0.000, 20:52:39.852, 1582471359852
142, 920.34, 577.85, 642.48, 173.98, 0.000, 0.000, 0.000, 20:52:39.852, 1582471359852
143, 971.06, 620.19, 718.46, 208.13, 0.000, 0.000, 0.000, 20:52:39.884, 1582471359884
144, 948.38, 573.81, 720.02, 232.32, 0.000, 0.000, 0.000, 20:52:39.884, 1582471359884
145, 909.66, 559.11, 637.39, 183.94, 0.000, 0.000, 0.000, 20:52:39.884, 1582471359884
146, 874.53, 541.39, 585.05, 146.27, 0.000, 0.000, 0.000, 20:52:39.884, 1582471359884
147, 920.49, 572.74, 694.96, 192.67, 0.000, 0.000, 0.000, 20:52:39.885, 1582471359885
148, 916.39, 551.37, 691.02, 219.57, 0.000, 0.000, 0.000, 20:52:39.885, 1582471359885
149, 880.95, 515.26, 624.23, 167.55, 0.000, 0.000, 0.000, 20:52:39.898, 1582471359898
150, 827.26, 502.17, 538.57, 122.62, 0.000, 0.000, 0.000, 20:52:39.898, 1582471359898
151, 923.40, 574.03, 698.52, 184.86, 0.000, 0.000, 0.000, 20:52:39.899, 1582471359899
152, 927.98, 562.92, 684.45, 212.44, 0.000, 0.000, 0.000, 20:52:39.899, 1582471359899
153, 892.53, 537.54, 636.37, 171.81, 0.000, 0.000, 0.000, 20:52:39.912, 1582471359912
154, 858.88, 513.74, 572.09, 126.79, 0.000, 0.000, 0.000, 20:52:39.912, 1582471359912
155, 924.44, 580.64, 682.17, 175.20, 0.000, 0.000, 0.000, 20:52:39.928, 1582471359928
156, 943.87, 581.67, 707.22, 223.17, 0.000, 0.000, 0.000, 20:52:39.928, 1582471359928
157, 901.44, 541.75, 630.36, 172.47, 0.000, 0.000, 0.000, 20:52:39.929, 1582471359929
158, 926.17, 570.60, 636.72, 167.50, 0.000, 0.000, 0.000, 20:52:39.929, 1582471359929
159, 1007.38, 644.35, 779.55, 231.43, 0.000, 0.000, 0.000, 20:52:39.942, 1582471359942
160, 1005.64, 654.27, 743.97, 273.06, 0.000, 0.000, 0.000, 20:52:39.942, 1582471359942
161, 907.35, 568.54, 648.14, 205.24, 0.000, 0.000, 0.000, 20:52:39.958, 1582471359958
162, 907.22, 583.61, 611.23, 185.57, 0.000, 0.000, 0.000, 20:52:39.958, 1582471359958
163, 947.02, 609.56, 705.58, 213.35, 0.000, 0.000, 0.000, 20:52:39.959, 1582471359959
164, 955.52, 591.69, 749.72, 267.50, 0.000, 0.000, 0.000, 20:52:39.959, 1582471359959
165, 915.81, 571.57, 646.00, 207.95, 0.000, 0.000, 0.000, 20:52:39.972, 1582471359972
166, 884.68, 564.16, 595.49, 174.60, 0.000, 0.000, 0.000, 20:52:39.972, 1582471359972
167, 941.89, 612.95, 714.98, 220.42, 0.000, 0.000, 0.000, 20:52:39.988, 1582471359988
168, 955.02, 608.31, 726.69, 250.45, 0.000, 0.000, 0.000, 20:52:39.988, 1582471359988
169, 900.46, 556.39, 632.29, 181.96, 0.000, 0.000, 0.000, 20:52:39.988, 1582471359988
170, 908.72, 570.75, 639.08, 168.90, 0.000, 0.000, 0.000, 20:52:39.988, 1582471359988
171, 962.35, 620.96, 739.08, 210.92, 0.000, 0.000, 0.000, 20:52:40.002, 1582471360002
172, 949.38, 602.41, 712.82, 235.88, 0.000, 0.000, 0.000, 20:52:40.002, 1582471360002
173, 917.16, 578.78, 633.77, 187.44, 0.000, 0.000, 0.000, 20:52:40.018, 1582471360018
174, 972.67, 630.15, 693.10, 211.12, 0.000, 0.000, 0.000, 20:52:40.018, 1582471360018
175, 1066.07, 720.48, 817.10, 290.04, 0.000, 0.000, 0.000, 20:52:40.019, 1582471360019
176, 986.22, 643.56, 749.70, 286.97, 0.000, 0.000, 0.000, 20:52:40.019, 1582471360019
177, 934.83, 609.26, 652.12, 229.45, 0.000, 0.000, 0.000, 20:52:40.032, 1582471360032
178, 936.25, 615.86, 644.75, 219.89, 0.000, 0.000, 0.000, 20:52:40.032, 1582471360032
179, 1020.01, 680.76, 797.31, 282.55, 0.000, 0.000, 0.000, 20:52:40.048, 1582471360048
180, 985.80, 647.32, 749.29, 293.76, 0.000, 0.000, 0.000, 20:52:40.048, 1582471360048
181, 952.32, 614.85, 679.08, 249.72, 0.000, 0.000, 0.000, 20:52:40.049, 1582471360049
182, 942.98, 621.45, 669.23, 228.48, 0.000, 0.000, 0.000, 20:52:40.049, 1582471360049
183, 1000.22, 673.31, 782.61, 264.71, 0.000, 0.000, 0.000, 20:52:40.062, 1582471360062
184, 1013.61, 673.03, 761.69, 296.76, 0.000, 0.000, 0.000, 20:52:40.062, 1582471360062
185, 899.67, 568.25, 637.91, 196.32, 0.000, 0.000, 0.000, 20:52:40.078, 1582471360078
186, 929.45, 585.33, 657.58, 182.40, 0.000, 0.000, 0.000, 20:52:40.078, 1582471360078
187, 999.98, 642.87, 777.69, 231.82, 0.000, 0.000, 0.000, 20:52:40.079, 1582471360079
188, 980.11, 636.13, 731.27, 258.61, 0.000, 0.000, 0.000, 20:52:40.079, 1582471360079
189, 938.62, 604.37, 665.51, 212.95, 0.000, 0.000, 0.000, 20:52:40.092, 1582471360092
190, 924.90, 611.60, 632.67, 193.97, 0.000, 0.000, 0.000, 20:52:40.092, 1582471360092
